=~=~=~=~=~=~=~=~=~=~=~= PuTTY log 2025.04.17 10:01:42 =~=~=~=~=~=~=~=~=~=~=~=




Speed (Hz)
59.6770
59.7044
59.7574
59.8059
59.8191
59.8169
59.8212
59.8133
59.8055
59.8140
59.8267
59.8226
59.7936
59.7852
59.7922
59.8059
59.8240
59.8603
59.9176
59.9807
60.388
60.730
60.809
60.947
60.1214
60.1502
60.1719
60.1879
60.1951
60.1624
60.1368
60.1370
60.1433
60.1412
60.1699
60.2302
60.2910
60.3192
60.3242
60.3263
60.3150
60.2893
60.2733
60.2590
60.2338
60.1768
60.1279
60.1018
60.839
60.653
60.583
60.709
60.838
60.976
60.860
60.465
60.109
59.9831
59.9558
59.9314
59.9095
59.8866
59.8233
59.7568
59.7141
59.6905
59.6700
59.6692
59.7116
59.7727
59.8108
59.8185
59.8202
59.8290
59.8238
59.8230
59.8415
59.8505
59.8361
59.8111
59.8115
59.8233
59.8371
59.8623
59.9112
59.9657
60.253
60.679
60.897
60.968
60.1197
60.1457
60.1713
60.1903
60.2119
60.2055
60.1773
60.1612
60.1706
60.1761
60.1831
60.2273
60.2949
60.3500
60.3671
60.3696
60.3688
60.3507
60.3194
60.3065
60.2878
60.2485
60.1902
60.1525
60.1281
60.1032
60.901
60.930
60.1102
60.1290
60.1390
60.1229
60.860
60.555
60.362
60.171
60.4
59.9844
59.9489
59.8820
59.8233
59.7901
59.7661
59.7469
59.7593
59.8106
59.8665
59.8887
59.8883
59.8945
59.8881
59.8755
59.8760
59.8876
59.8874
59.8632
59.8478
59.8539
59.8671
59.8882
59.9246
59.9820
60.421
60.1006
60.1377
60.1452
60.1558
60.1763
60.1971
60.2140
60.2244
60.2343
60.2032
60.1730
60.1664
60.1749
60.1805
60.1979
60.2534
60.3156
60.3519
60.3625
60.3665
60.3574
60.3313
60.3124
60.3019
60.2799
60.2330
60.1808
60.1548
60.1304
60.1047
60.892
60.939
60.1038
60.1079
60.960
60.545
60.77
59.9760
59.9475
59.9177
59.8935
59.8722
59.8224
59.7521
59.7028
59.6791
59.6622
59.6554
59.6905
59.7519
59.7994
59.8119
59.8152
59.8198
59.8069
59.7968
59.8085
59.8180
59.8110
59.7828
59.7758
59.7863
59.7980
59.8207
59.8652
59.9258
59.9875
60.443
60.713
60.793
60.989
60.1262
60.1546
60.1798
60.2004
60.2064
60.1781
60.1603
60.1666
60.1773
60.1808
60.2147
60.2769
60.3357
60.3583
60.3605
60.3599
60.3403
60.3073
60.2925
60.2767
60.2446
60.1876
60.1421
60.1180
60.991
60.856
60.835
60.990
60.1182
60.1289
60.1166
60.797
60.460
60.228
59.9973
59.9777
59.9590
59.9284
59.8608
59.7933
59.7476
59.7209
59.6954
59.6982
59.7433
59.8026
59.8347
59.8408
59.8458
59.8491
59.8384
59.8404
59.8551
59.8612
59.8460
59.8209
59.8261
59.8369
59.8524
59.8812
59.9360
59.9933
60.528
60.942
60.1044
60.1100
60.1249
60.1486
60.1692
60.1876
60.2062
60.1912
60.1560
60.1429
60.1509
60.1554
60.1667
60.2157
60.2830
60.3352
60.3554
60.3612
60.3626
60.3437
60.3217
60.3100
60.2902
60.2480
60.1923
60.1558
60.1315
60.1028
60.856
60.895
60.1013
60.1138
60.1112
60.838
60.405
60.71
59.9841
59.9634
59.9443
59.9270
59.8898
59.8250
59.7738
59.7463
59.7264
59.7088
59.7307
59.7819
59.8334
59.8491
59.8474
59.8501
59.8432
59.8271
59.8326
59.8391
59.8358
59.8062
59.7889
59.7965
59.8063
59.8255
59.8623
59.9176
59.9769
60.331
60.689
60.777
60.905
60.1149
60.1395
60.1629
60.1799
60.1866
60.1555
60.1190
60.1117
60.1164
60.1127
60.1290
60.1830
60.2439
60.2732
60.2782
60.2773
60.2666
60.2382
60.2181
60.2060
60.1799
60.1259
60.726
60.403
60.151
59.9907
59.9767
59.9859
59.9961
60.81
59.9993
59.9656
59.9216
59.8922
59.8675
59.8445
59.8209
59.7970
59.7391
59.6632
59.6111
59.5837
59.5660
59.5558
59.5919
59.6550
59.7040
59.7203
59.7260
59.7393
59.7368
59.7325
59.7501
59.7599
59.7536
59.7261
59.7189
59.7260
59.7400
59.7650
59.8115
59.8719
59.9355
59.9871
60.156
60.238
60.398
60.654
60.946
60.1196
60.1415
60.1436
60.1133
60.918
60.942
60.1019
60.1093
60.1453
60.2121
60.2753
60.3054
60.3174
60.3220
60.3118
60.2856
60.2760
60.2564
60.2258
60.1652
60.1151
60.860
60.619
60.396
60.391
60.540
60.716
60.861
60.802
60.458
60.129
59.9906
59.9708
59.9524
59.9280
59.9013
59.8390
59.7748
59.7341
59.7126
59.6904
59.6894
59.7324
59.7894
59.8204
59.8235
59.8255
59.8289
59.8192
59.8187
59.8339
59.8361
59.8160
59.7917
59.7960
59.8079
59.8257
59.8534
59.9066
59.9619
60.240
60.697
60.858
60.922
60.1142
60.1367
60.1577
60.1739
60.1856
60.1680
60.1282
60.1099
60.1123
60.1143
60.1215
60.1662
60.2320
60.2796
60.2992
60.3034
60.3047
60.2824
60.2560
60.2446
60.2255
60.1869
60.1286
60.859
60.613
60.338
60.175
60.217
60.324
60.443
60.451
60.186
59.9766
59.9425
59.9142
59.8922
59.8675
59.8460
59.8090
59.7395
59.6758
59.6432
59.6239
59.6082
59.6299
59.6857
59.7447
59.7680
59.7748
59.7822
59.7817
59.7708
59.7749
59.7829
59.7822
59.7522
59.7299
59.7314
59.7369
59.7532
59.7856
59.8377
59.8982
59.9579
59.9938
60.85
60.196
60.460
60.736
60.1005
60.1175
60.1319
60.1066
60.767
60.707
60.812
60.849
60.1039
60.1590
60.2266
60.2643
60.2722
60.2732
60.2653
60.2369
60.2137
60.2007
60.1736
60.1228
60.673
60.366
60.143
59.9907
59.9791
59.9945
60.116
60.301
60.259
59.9974
59.9607
59.9351
59.9129
59.8922
59.8721
59.8492
59.7979
59.7274
59.6737
59.6431
59.6236
59.6118
59.6409
59.7000
59.7509
59.7618
59.7651
59.7730
59.7689
59.7632
59.7760
59.7894
59.7867
59.7581
59.7544
59.7682
59.7854
59.8094
59.8531
59.9136
59.9751
60.251
60.557
60.578
60.693
60.960
60.1241
60.1455
60.1675
60.1711
60.1436
60.1210
60.1265
60.1378
60.1437
60.1744
60.2386
60.3036
60.3328
60.3410
60.3480
60.3405
60.3173
60.3050
60.2949
60.2702
60.2130
60.1627
60.1374
60.1119
60.928
60.857
60.954
60.1101
60.1175
60.1047
60.692
60.374
60.137
59.9933
59.9761
59.9595
59.9440
59.8885
59.8253
59.7893
59.7649
59.7452
59.7437
59.7913
59.8503
59.8886
59.8961
59.8983
59.9012
59.8900
59.8881
59.9029
59.9067
59.8851
59.8568
59.8547
59.8613
59.8755
59.8980
59.9489
60.48
60.662
60.1115
60.1325
60.1415
60.1664
60.1925
60.2190
60.2387
60.2610
60.2462
60.2084
60.1911
60.1925
60.1887
60.1909
60.2301
60.2920
60.3392
60.3531
60.3523
60.3509
60.3287
60.3072
60.2968
60.2765
60.2389
60.1796
60.1444
60.1208
60.904
60.704
60.700
60.798
60.893
60.893
60.669
60.219
59.9858
59.9573
59.9310
59.9068
59.8841
59.8431
59.7670
59.7035
59.6663
59.6382
59.6141
59.6295
59.6782
59.7368
59.7595
59.7648
59.7744
59.7783
59.7708
59.7835
59.8002
59.8020
59.7767
59.7574
59.7615
59.7708
59.7866
59.8175
59.8729
59.9329
59.9912
60.284
60.382
60.539
60.785
60.1050
60.1298
60.1498
60.1660
60.1429
60.1145
60.1089
60.1186
60.1219
60.1437
60.2012
60.2703
60.3092
60.3246
60.3337
60.3337
60.3050
60.2844
60.2727
60.2495
60.1950
60.1373
60.1030
60.789
60.520
60.380
60.505
60.636
60.804
60.781
60.488
60.131
59.9875
59.9660
59.9511
59.9298
59.9116
59.8582
59.7945
59.7424
59.7160
59.6932
59.6803
59.7088
59.7653
59.8075
59.8153
59.8173
59.8214
59.8110
59.8019
59.8138
59.8205
59.8132
59.7830
59.7727
59.7835
59.7971
59.8195
59.8604
59.9162
59.9780
60.334
60.609
60.654
60.837
60.1095
60.1322
60.1512
60.1682
60.1661
60.1304
60.1066
60.1098
60.1165
60.1181
60.1525
60.2163
60.2778
60.3049
60.3157
60.3252
60.3180
60.2962
60.2893
60.2829
60.2547
60.2013
60.1563
60.1272
60.1038
60.824
60.794
60.908
60.1032
60.1124
60.968
60.602
60.244
60.1
59.9784
59.9588
59.9358
59.9103
59.8470
59.7797
59.7403
59.7145
59.6927
59.6961
59.7427
59.8037
59.8392
59.8496
59.8565
59.8629
59.8538
59.8504
59.8636
59.8654
59.8448
59.8134
59.8132
59.8199
59.8326
59.8560
59.9014
59.9555
60.154
60.604
60.826
60.929
60.1155
60.1431
60.1688
60.1878
60.2069
60.1940
60.1604
60.1475
60.1537
60.1569
60.1656
60.2098
60.2723
60.3196
60.3316
60.3286
60.3249
60.3039
60.2758
60.2638
60.2403
60.1956
60.1353
60.996
60.769
60.511
60.363
60.410
60.555
60.712
60.753
60.537
60.128
59.9840
59.9619
59.9433
59.9267
59.9090
59.8681
59.7961
59.7355
59.7032
59.6825
59.6629
59.6837
59.7334
59.7903
59.8107
59.8172
59.8271
59.8313
59.8234
59.8343
59.8533
59.8557
59.8328
59.8232
59.8302
59.8493
59.8726
59.9106
59.9668
60.311
60.907
60.1311
60.1434
60.1550
60.1788
60.2009
60.2225
60.2378
60.2482
60.2236
60.1987
60.1963
60.2103
60.2146
60.2425
60.3040
60.3741
60.4112
60.4254
60.4320
60.4262
60.4003
60.3848
60.3769
60.3581
60.3095
60.2613
60.2343
60.2085
60.1875
60.1768
60.1886
60.2018
60.2109
60.1999
60.1592
60.1189
60.894
60.652
60.455
60.268
60.101
59.9567
59.8906
59.8491
59.8295
59.8089
59.8055
59.8445
59.9051
59.9460
59.9537
59.9511
59.9526
59.9397
59.9301
59.9411
59.9444
59.9293
59.8958
59.8874
59.8978
59.9080
59.9284
59.9700
60.274
60.916
60.1391
60.1648
60.1736
60.1926
60.2165
60.2402
60.2591
60.2766
60.2669
60.2300
60.2090
60.2106
60.2092
60.2093
60.2450
60.3076
60.3603
60.3732
60.3768
60.3736
60.3532
60.3245
60.3125
60.2977
60.2661
60.2089
60.1691
60.1446
60.1184
60.998
60.1004
60.1126
60.1260
60.1301
60.1102
60.654
60.277
59.9993
59.9706
59.9453
59.9223
59.8906
59.8242
59.7651
59.7299
59.7039
59.6860
59.6967
59.7472
59.8041
59.8269
59.8275
59.8341
59.8334
59.8204
59.8223
59.8349
59.8383
59.8167
59.7979
59.8011
59.8102
59.8271
59.8547
59.9070
59.9574
60.161
60.499
60.601
60.656
60.858
60.1096
60.1331
60.1499
60.1637
60.1402
60.1097
60.1027
60.1126
60.1170
60.1345
60.1845
60.2489
60.2904
60.3002
60.2966
60.2892
60.2611
60.2339
60.2254
60.2006
60.1531
60.946
60.625
60.393
60.174
60.14
60.87
60.200
60.362
60.351
60.93
59.9680
59.9394
59.9151
59.8960
59.8762
59.8598
59.8195
59.7543
59.7023
59.6803
59.6606
59.6452
59.6758
59.7311
59.7823
59.7934
59.7908
59.7949
59.7881
59.7755
59.7848
59.7939
59.7933
59.7677
59.7595
59.7696
59.7855
59.8113
59.8560
59.9132
59.9778
60.334
60.686
60.779
60.951
60.1255
60.1508
60.1730
60.1926
60.2018
60.1725
60.1462
60.1453
60.1530
60.1539
60.1833
60.2437
60.3076
60.3384
60.3468
60.3581
60.3511
60.3295
60.3173
60.3110
60.2913
60.2419
60.1995
60.1740
60.1496
60.1230
60.1143
60.1214
60.1328
60.1366
60.1200
60.804
60.405
60.142
59.9943
59.9757
59.9574
59.9388
59.8801
59.8143
59.7720
59.7528
59.7344
59.7342
59.7758
59.8361
59.8733
59.8770
59.8792
59.8824
59.8713
59.8687
59.8807
59.8886
59.8766
59.8498
59.8486
59.8571
59.8661
59.8876
59.9297
59.9801
60.376
60.825
60.979
60.1024
60.1220
60.1491
60.1742
60.1958
60.2198
60.2140
60.1857
60.1721
60.1794
60.1860
60.1875
60.2280
60.2889
60.3362
60.3491
60.3468
60.3460
60.3233
60.2933
60.2818
60.2611
60.2239
60.1673
60.1300
60.1060
60.817
60.649
60.610
60.732
60.867
60.886
60.670
60.237
59.9902
59.9690
59.9492
59.9281
59.9081
59.8725
59.8052
59.7401
59.7033
59.6755
59.6506
59.6606
59.7061
59.7550
59.7707
59.7680
59.7684
59.7695
59.7581
59.7632
59.7805
59.7872
59.7680
59.7521
59.7599
59.7747
59.7926
59.8266
59.8817
59.9413
59.9985
60.342
60.437
60.529
60.771
60.1007
60.1255
60.1444
60.1599
60.1376
60.1072
60.1018
60.1101
60.1131
60.1290
60.1830
60.2490
60.2905
60.3021
60.3083
60.3066
60.2870
60.2711
60.2634
60.2443
60.2036
60.1525
60.1183
60.909
60.635
60.473
60.528
60.665
60.760
60.715
60.394
59.9951
59.9699
59.9483
59.9331
59.9185
59.9063
59.8605
59.7930
59.7431
59.7155
59.6967
59.6869
59.7170
59.7746
59.8257
59.8401
59.8444
59.8506
59.8408
59.8325
59.8419
59.8507
59.8432
59.8127
59.7995
59.8062
59.8171
59.8347
59.8742
59.9305
59.9873
60.411
60.723
60.789
60.975
60.1253
60.1536
60.1796
60.2040
60.2123
60.1844
60.1642
60.1634
60.1682
60.1685
60.1910
60.2495
60.3108
60.3328
60.3380
60.3416
60.3310
60.3050
60.2915
60.2824
60.2610
60.2065
60.1621
60.1373
60.1137
60.917
60.878
60.970
60.1132
60.1257
60.1165
60.779
60.381
60.95
59.9855
59.9635
59.9429
59.9169
59.8548
59.7881
59.7466
59.7216
59.7020
59.7008
59.7436
59.8027
59.8380
59.8428
59.8447
59.8487
59.8391
59.8381
59.8555
59.8611
59.8459
59.8222
59.8222
59.8322
59.8477
59.8699
59.9156
59.9674
60.225
60.634
60.806
60.875
60.1027
60.1261
60.1519
60.1688
60.1867
60.1725
60.1391
60.1249
60.1323
60.1370
60.1438
60.1876
60.2546
60.3059
60.3235
60.3231
60.3228
60.2993
60.2688
60.2554
60.2344
60.1944
60.1332
60.897
60.622
60.358
60.186
60.163
60.298
60.429
60.459
60.241
59.9827
59.9507
59.9269
59.9070
59.8892
59.8717
59.8402
59.7748
59.7186
59.6893
59.6725
59.6588
59.6786
59.7277
59.7810
59.8000
59.8035
59.8055
59.8045
59.7946
59.7994
59.8108
59.8114
59.7884
59.7692
59.7829
59.7998
59.8212
59.8584
59.9167
59.9794
60.445
60.870
60.1041
60.1192
60.1459
60.1750
60.1993
60.2172
60.2339
60.2077
60.1769
60.1702
60.1793
60.1824
60.2004
60.2529
60.3179
60.3558
60.3687
60.3726
60.3626
60.3398
60.3255
60.3199
60.2982
60.2558
60.2063
60.1784
60.1587
60.1383
60.1256
60.1367
60.1489
60.1595
60.1494
60.1144
60.749
60.453
60.227
60.30
59.9811
59.9619
59.9077
59.8379
59.7909
59.7621
59.7405
59.7295
59.7624
59.8185
59.8628
59.8747
59.8767
59.8860
59.8801
59.8767
59.8893
59.8951
59.8871
59.8558
59.8432
59.8488
59.8536
59.8708
59.9106
59.9600
60.156
60.655
60.900
60.965
60.1154
60.1422
60.1681
60.1893
60.2056
60.2075
60.1745
60.1509
60.1517
60.1579
60.1578
60.1914
60.2525
60.3100
60.3320
60.3330
60.3313
60.3135
60.2822
60.2640
60.2457
60.2146
60.1528
60.1057
60.802
60.570
60.387
60.352
60.522
60.670
60.773
60.676
60.303
59.9950
59.9672
59.9440
59.9227
59.9022
59.8735
59.8074
59.7403
59.6955
59.6737
59.6512
59.6533
59.6965
59.7530
59.7840
59.7874
59.7900
59.7935
59.7809
59.7808
59.7959
59.8000
59.7808
59.7567
59.7576
59.7730
59.7871
59.8174
59.8695
59.9260
59.9874
60.312
60.488
60.538
60.722
60.971
60.1176
60.1343
60.1478
60.1299
60.904
60.731
60.759
60.779
60.857
60.1298
60.1917
60.2370
60.2521
60.2516
60.2520
60.2295
60.2033
60.1884
60.1691
60.1246
60.647
60.237
59.9976
59.9719
59.9461
59.9457
59.9572
59.9663
59.9670
59.9404
59.8974
59.8622
59.8362
59.8170
59.7942
59.7749
59.7418
59.6770
59.6179
59.5895
59.5696
59.5523
59.5704
59.6262
59.6864
59.7099
59.7147
59.7197
59.7149
59.7011
59.7042
59.7197
59.7224
59.6995
59.6771
59.6802
59.6900
59.7064
59.7372
59.7951
59.8543
59.9144
59.9565
59.9728
59.9888
60.176
60.525
60.793
60.1023
60.1211
60.1012
60.768
60.701
60.797
60.854
60.1008
60.1536
60.2186
60.2582
60.2698
60.2703
60.2664
60.2415
60.2211
60.2119
60.1891
60.1434
60.897
60.569
60.345
60.113
60.23
60.149
60.292
60.485
60.499
60.254
59.9898
59.9622
59.9346
59.9124
59.8903
59.8696
59.8148
59.7390
59.6816
59.6456
59.6208
59.6070
59.6348
59.6948
59.7484
59.7669
59.7713
59.7821
59.7807
59.7721
59.7837
59.7973
59.7903
59.7616
59.7490
59.7569
59.7706
59.7913
59.8311
59.8859
59.9468
60.3
60.306
60.375
60.481
60.678
60.918
60.1086
60.1229
60.1260
60.941
60.701
60.679
60.805
60.891
60.1215
60.1839
60.2502
60.2825
60.2902
60.2938
60.2842
60.2568
60.2399
60.2272
60.1944
60.1346
60.805
60.498
60.215
59.9970
59.9897
60.0
60.125
60.234
60.137
59.9741
59.9349
59.9079
59.8837
59.8637
59.8427
59.8208
59.7632
59.6960
59.6481
59.6223
59.6046
59.5937
59.6285
59.6869
59.7238
59.7312
59.7296
59.7299
59.7157
59.7055
59.7156
59.7168
59.7016
59.6713
59.6639
59.6781
59.6949
59.7214
59.7721
59.8295
59.8957
59.9456
59.9693
59.9780
59.9941
60.206
60.449
60.648
60.772
60.710
60.338
60.122
60.161
60.217
60.236
60.623
60.1262
60.1852
60.2093
60.2139
60.2175
60.2000
60.1778
60.1694
60.1568
60.1261
60.718
60.271
60.23
59.9780
59.9615
59.9570
59.9718
59.9871
59.9983
59.9853
59.9462
59.9124
59.8841
59.8600
59.8380
59.8151
59.7852
59.7217
59.6572
59.6217
59.6010
59.5866
59.5952
59.6475
59.7145
59.7491
59.7606
59.7685
59.7733
59.7615
59.7625
59.7749
59.7828
59.7618
59.7373
59.7392
59.7500
59.7650
59.7900
59.8418
59.9002
59.9606
60.77
60.236
60.325
60.541
60.819
60.1122
60.1311
60.1518
60.1380
60.1121
60.1050
60.1150
60.1246
60.1392
60.1890
60.2558
60.3093
60.3234
60.3231
60.3204
60.2966
60.2681
60.2559
60.2337
60.1927
60.1339
60.1002
60.763
60.560
60.401
60.479
60.668
60.851
60.914
60.776
60.405
60.115
59.9885
59.9699
59.9500
59.9352
59.8962
59.8297
59.7767
59.7427
59.7236
59.7042
59.7289
59.7857
59.8360
59.8498
59.8499
59.8534
59.8485
59.8373
59.8459
59.8598
59.8605
59.8346
59.8247
59.8349
59.8489
59.8721
59.9162
59.9746
60.363
60.930
60.1256
60.1344
60.1451
60.1650
60.1857
60.2038
60.2189
60.2257
60.1990
60.1692
60.1653
60.1724
60.1750
60.1959
60.2527
60.3163
60.3516
60.3601
60.3683
60.3637
60.3362
60.3198
60.3122
60.2887
60.2347
60.1825
60.1565
60.1311
60.1082
60.944
60.1031
60.1104
60.1175
60.1043
60.633
60.205
59.9886
59.9646
59.9450
59.9265
59.9068
59.8534
59.7918
59.7509
59.7318
59.7110
59.7097
59.7509
59.8147
59.8604
59.8733
59.8741
59.8780
59.8701
59.8629
59.8726
59.8810
59.8696
59.8406
59.8373
59.8500
59.8646
59.8923
59.9432
60.19
60.642
60.1189
60.1494
60.1567
60.1803
60.2085
60.2366
60.2548
60.2743
60.2676
60.2361
60.2178
60.2227
60.2299
60.2356
60.2770
60.3444
60.4003
60.4180
60.4188
60.4159
60.3951
60.3614
60.3436
60.3226
60.2858
60.2285
60.1921
60.1694
60.1497
60.1367
60.1395
60.1594
60.1800
60.1875
60.1713
60.1282
60.960
60.688
60.425
60.172
59.9925
59.9559
59.8834
59.8211
59.7829
59.7621
59.7403
59.7557
59.8052
59.8642
59.8883
59.8932
59.8976
59.8968
59.8813
59.8809
59.8957
59.8968
59.8718
59.8545
59.8632
59.8734
59.8914
59.9236
59.9794
60.343
60.892
60.1245
60.1322
60.1351
60.1523
60.1720
60.1880
60.2009
60.2135
60.1921
60.1593
60.1545
60.1621
60.1671
60.1847
60.2394
60.3059
60.3455
60.3571
60.3558
60.3467
60.3183
60.2933
60.2828
60.2603
60.2117
60.1541
60.1196
60.930
60.678
60.499
60.575
60.676
60.804
60.731
60.411
59.9977
59.9705
59.9474
59.9307
59.9098
59.8946
59.8529
59.7843
59.7354
59.7096
59.6891
59.6750
59.7008
59.7568
59.7987
59.8061
59.8036
59.8041
59.7929
59.7774
59.7869
59.7919
59.7853
59.7565
59.7459
59.7585
59.7711
59.7939
59.8350
59.8929
59.9537
60.87
60.402
60.484
60.623
60.858
60.1071
60.1259
60.1417
60.1458
60.1077
60.759
60.717
60.746
60.716
60.957
60.1498
60.2073
60.2336
60.2364
60.2346
60.2218
60.1929
60.1731
60.1590
60.1322
60.755
60.227
59.9906
59.9631
59.9410
59.9283
59.9396
59.9488
59.9561
59.9432
59.9051
59.8624
59.8278
59.8019
59.7785
59.7526
59.7284
59.6683
59.5962
59.5489
59.5255
59.5075
59.5047
59.5471
59.6108
59.6563
59.6696
59.6742
59.6850
59.6789
59.6758
59.6903
59.7012
59.6908
59.6578
59.6488
59.6575
59.6684
59.6915
59.7350
59.7914
59.8562
59.9060
59.9345
59.9455
59.9671
59.9956
60.233
60.470
60.731
60.745
60.442
60.253
60.336
60.443
60.539
60.956
60.1645
60.2247
60.2518
60.2585
60.2611
60.2477
60.2204
60.2084
60.1926
60.1603
60.997
60.528
60.263
59.9989
59.9827
59.9805
59.9965
60.161
60.297
60.189
59.9849
