=~=~=~=~=~=~=~=~=~=~=~= PuTTY log 2025.04.16 15:13:35 =~=~=~=~=~=~=~=~=~=~=~=




Speed (Hz)
60.2842
60.3465
60.3678
60.3702
60.3654
60.3387
60.3039
60.2864
60.2726
60.2424
60.1895
60.1473
60.1185
60.919
60.720
60.748
60.945
60.1111
60.1187
60.975
60.473
60.29
59.9685
59.9437
59.9228
59.9065
59.8812
59.8215
59.7671
59.7330
59.7123
59.6967
59.7145
59.7675
59.8283
59.8525
59.8475
59.8370
59.8249
59.7997
59.7949
59.8023
59.8060
59.7875
59.7689
59.7734
59.7843
59.8018
59.8308
59.8886
59.9514
60.159
60.529
60.626
60.641
60.794
60.983
60.1192
60.1386
60.1619
60.1448
60.1111
60.1009
60.1044
60.1021
60.1104
60.1584
60.2244
60.2659
60.2733
60.2657
60.2507
60.2225
60.1978
60.1875
60.1737
60.1395
60.844
60.561
60.334
60.96
59.9975
60.90
60.269
60.482
60.493
60.215
59.9766
59.9390
59.9086
59.8855
59.8621
59.8444
59.8045
59.7351
59.6793
59.6459
59.6224
59.6092
59.6404
59.7046
59.7650
59.7848
59.7898
59.7925
59.7848
59.7740
59.7887
59.8044
59.8074
59.7834
59.7726
59.7797
59.7919
59.8057
59.8453
59.9054
59.9700
60.318
60.620
60.668
60.764
60.930
60.1195
60.1438
60.1696
60.1846
60.1622
60.1386
60.1373
60.1456
60.1484
60.1797
60.2447
60.3154
60.3485
60.3513
60.3526
60.3353
60.3042
60.2816
60.2721
60.2519
60.2012
60.1492
60.1208
60.940
60.703
60.595
60.744
60.944
60.1152
60.1082
60.722
60.341
60.36
59.9794
59.9578
59.9438
59.9260
59.8776
59.8106
59.7674
59.7419
59.7240
59.7187
59.7592
59.8207
59.8608
59.8657
59.8610
59.8545
59.8381
59.8300
59.8467
59.8574
59.8513
59.8305
59.8359
59.8534
59.8696
59.8976
59.9505
60.115
60.742
60.1205
60.1403
60.1376
60.1469
60.1647
60.1849
60.2023
60.2257
60.2213
60.1894
60.1693
60.1720
60.1762
60.1815
60.2238
60.2911
60.3470
60.3638
60.3608
60.3597
60.3361
60.3058
60.2939
60.2803
60.2536
60.1962
60.1547
60.1291
60.1033
60.827
60.873
60.1039
60.1195
60.1283
60.1039
60.526
60.110
59.9773
59.9467
59.9268
59.9044
59.8750
59.8114
59.7507
59.7174
59.6979
59.6804
59.6963
59.7522
59.8162
59.8411
59.8410
59.8354
59.8279
59.8088
59.8076
59.8200
59.8220
59.7981
59.7767
59.7793
59.7835
59.7944
59.8204
59.8735
59.9327
59.9934
60.314
60.391
60.399
60.550
60.742
60.949
60.1141
60.1381
60.1179
60.913
60.790
60.847
60.845
60.993
60.1518
60.2203
60.2609
60.2693
60.2635
60.2507
60.2172
60.1845
60.1717
60.1463
60.1033
60.454
60.80
59.9811
59.9535
59.9368
59.9492
59.9722
59.9971
59.9993
59.9732
59.9283
59.8923
59.8639
59.8419
59.8185
59.7998
59.7568
59.6890
59.6304
59.5985
59.5753
59.5614
59.5909
59.6541
59.7110
59.7321
59.7345
59.7367
59.7309
59.7185
59.7300
59.7414
59.7456
59.7218
59.7097
59.7158
59.7285
59.7496
59.7896
59.8592
59.9281
59.9979
60.339
60.425
60.458
60.653
60.848
60.1039
60.1213
60.1338
60.1077
60.827
60.765
60.822
60.878
60.1181
60.1864
60.2591
60.3008
60.3121
60.3137
60.2998
60.2673
60.2488
60.2383
60.2171
60.1664
60.1166
60.842
60.565
60.330
60.253
60.419
60.621
60.773
60.703
60.332
59.9899
59.9579
59.9295
59.9119
59.8932
59.8785
59.8279
59.7646
59.7223
59.7002
59.6822
59.6790
59.7210
59.7876
59.8372
59.8482
59.8469
59.8458
59.8293
59.8192
59.8296
59.8364
59.8298
59.8013
59.7944
59.8050
59.8176
59.8420
59.8929
59.9596
60.260
60.791
60.1037
60.1055
60.1192
60.1408
60.1622
60.1841
60.2095
60.2106
60.1793
60.1610
60.1664
60.1671
60.1686
60.2062
60.2695
60.3238
60.3435
60.3421
60.3355
60.3088
60.2737
60.2586
60.2450
60.2183
60.1679
60.1288
60.1068
60.851
60.678
60.711
60.893
60.1075
60.1185
60.982
60.522
60.96
59.9733
59.9447
59.9208
59.8993
59.8728
59.8062
59.7427
59.7031
59.6809
59.6587
59.6719
59.7253
59.7878
59.8163
59.8185
59.8163
59.8099
59.7967
59.7991
59.8112
59.8197
59.8024
59.7818
59.7859
59.7928
59.8047
59.8361
59.8939
59.9557
60.211
60.601
60.706
60.698
60.855
60.1058
60.1265
60.1434
60.1673
60.1552
60.1274
60.1179
60.1285
60.1346
60.1487
60.2021
60.2781
60.3260
60.3435
60.3393
60.3330
60.3039
60.2747
60.2620
60.2399
60.1972
60.1413
60.1048
60.781
60.537
60.384
60.517
60.720
60.965
60.1032
60.765
60.323
60.27
59.9728
59.9513
59.9349
59.9237
59.8844
59.8185
59.7645
59.7346
59.7128
59.6982
59.7276
59.7876
59.8408
59.8564
59.8512
59.8491
59.8348
59.8199
59.8281
59.8442
59.8441
59.8215
59.8118
59.8238
59.8385
59.8619
59.9063
59.9705
60.376
60.990
60.1324
60.1373
60.1454
60.1627
60.1827
60.2019
60.2180
60.2279
60.1995
60.1759
60.1714
60.1783
60.1766
60.2072
60.2693
60.3384
60.3718
60.3784
60.3785
60.3656
60.3354
60.3234
60.3145
60.2941
60.2463
60.1986
60.1707
60.1462
60.1227
60.1155
60.1327
60.1509
60.1636
60.1491
60.1061
60.606
60.255
59.9935
59.9723
59.9524
59.9322
59.8754
59.8111
59.7697
59.7460
59.7254
59.7255
59.7740
59.8404
59.8860
59.8915
59.8923
59.8891
59.8717
59.8633
59.8735
59.8803
59.8658
59.8363
59.8324
59.8367
59.8443
59.8592
59.9075
59.9658
60.273
60.738
60.919
60.938
60.1081
60.1317
60.1541
60.1746
60.1970
60.1946
60.1560
60.1319
60.1308
60.1281
60.1328
60.1782
60.2469
60.3042
60.3240
60.3247
60.3198
60.2931
60.2594
60.2485
60.2293
60.1948
60.1365
60.907
60.602
60.329
60.125
60.141
60.354
60.582
60.692
60.485
60.44
59.9695
59.9410
59.9162
59.8951
59.8775
59.8446
59.7749
59.7117
59.6735
59.6436
59.6213
59.6371
59.6934
59.7586
59.7865
59.7888
59.7919
59.7866
59.7718
59.7753
59.7900
59.7987
59.7829
59.7665
59.7723
59.7836
59.8005
59.8310
59.8905
59.9558
60.185
60.591
60.679
60.740
60.905
60.1076
60.1316
60.1500
60.1673
60.1459
60.1140
60.1056
60.1137
60.1187
60.1340
60.1921
60.2669
60.3152
60.3321
60.3309
60.3276
60.3027
60.2841
60.2781
60.2660
60.2268
60.1731
60.1357
60.1077
60.748
60.585
60.690
60.858
60.1059
60.1061
60.770
60.356
60.35
59.9803
59.9560
59.9415
59.9278
59.8852
59.8187
59.7706
59.7395
59.7177
59.7065
59.7422
59.8076
59.8645
59.8839
59.8801
59.8813
59.8675
59.8550
59.8628
59.8736
59.8694
59.8412
59.8270
59.8325
59.8402
59.8592
59.8999
59.9625
60.253
60.863
60.1211
60.1266
60.1361
60.1581
60.1815
60.2028
60.2185
60.2246
60.1921
60.1661
60.1609
60.1605
60.1563
60.1826
60.2451
60.3091
60.3334
60.3373
60.3351
60.3142
60.2819
60.2682
60.2598
60.2388
60.1861
60.1400
60.1098
60.818
60.562
60.479
60.642
60.802
60.973
60.850
60.466
59.9974
59.9621
59.9334
59.9093
59.8868
59.8619
59.8008
59.7293
59.6819
59.6539
59.6317
59.6278
59.6708
59.7339
59.7731
59.7813
59.7807
59.7805
59.7651
59.7590
59.7759
59.7865
59.7768
59.7496
59.7486
59.7570
59.7675
59.7929
59.8443
59.9024
59.9674
60.101
60.275
60.269
60.329
60.512
60.718
60.893
60.1107
60.1079
60.752
60.577
60.603
60.667
60.694
60.1131
60.1830
60.2394
60.2570
60.2571
60.2524
60.2235
60.1922
60.1800
60.1616
60.1304
60.726
60.287
60.31
59.9771
59.9532
59.9511
59.9678
59.9865
59.9944
59.9723
59.9278
59.8913
59.8618
59.8403
59.8222
59.8056
59.7791
59.7176
59.6615
59.6266
59.6049
59.5881
59.5984
59.6487
59.7089
59.7302
59.7293
59.7260
59.7189
59.6980
59.6996
59.7149
59.7257
59.7119
59.6959
59.7071
59.7253
59.7441
59.7817
59.8426
59.9068
59.9702
60.131
60.218
60.288
60.407
60.605
60.839
60.1077
60.1314
60.1204
60.912
60.815
60.885
60.937
60.1047
60.1582
60.2257
60.2722
60.2815
60.2768
60.2698
60.2444
60.2234
60.2176
60.2033
60.1734
60.1252
60.984
60.777
60.563
60.442
60.551
60.740
60.899
60.889
60.544
60.37
59.9631
59.9325
59.9117
59.8933
59.8800
59.8445
59.7809
59.7310
59.7042
59.6862
59.6718
59.7036
59.7684
59.8294
59.8486
59.8492
59.8450
59.8315
59.8150
59.8237
59.8350
59.8350
59.8113
59.7958
59.8036
59.8136
59.8304
59.8676
59.9284
59.9918
60.525
60.807
60.834
60.898
60.1063
60.1263
60.1478
60.1733
60.1870
60.1610
60.1372
60.1332
60.1408
60.1454
60.1715
60.2330
60.3018
60.3320
60.3357
60.3280
60.3087
60.2707
60.2473
60.2343
60.2108
60.1589
60.1076
60.772
60.527
60.318
60.206
60.376
60.593
60.729
60.644
60.289
59.9873
59.9506
59.9239
59.9027
59.8827
59.8642
59.8082
59.7389
59.6897
59.6588
59.6329
59.6259
59.6645
59.7220
59.7644
59.7691
59.7637
59.7623
59.7419
59.7312
59.7444
59.7577
59.7527
59.7346
59.7395
59.7540
59.7676
59.7922
59.8398
59.9017
59.9656
60.140
60.300
60.232
60.286
60.492
60.684
60.866
60.1084
60.1065
60.798
60.606
60.678
60.745
60.780
60.1203
60.1899
60.2513
60.2785
60.2818
60.2804
60.2598
60.2303
60.2175
60.2060
60.1789
60.1227
60.817
60.541
60.266
60.61
60.8
60.194
60.376
60.490
60.268
59.9839
59.9443
59.9169
59.8943
59.8773
59.8659
59.8486
59.7903
59.7321
59.6967
59.6798
59.6630
59.6734
59.7248
59.7904
59.8209
59.8277
59.8248
59.8216
59.8045
59.8059
59.8219
59.8316
59.8195
59.7987
59.8015
59.8130
59.8249
59.8539
59.9101
59.9734
60.401
60.833
60.1003
60.1061
60.1269
60.1550
60.1824
60.2067
60.2304
60.2181
60.1906
60.1801
60.1886
60.1921
60.2018
60.2497
60.3198
60.3630
60.3702
60.3619
60.3519
60.3205
60.2923
60.2830
60.2666
60.2324
60.1815
60.1518
60.1311
60.1076
60.956
60.1112
60.1306
60.1544
60.1565
60.1267
60.805
60.397
60.80
59.9847
59.9615
59.9464
59.9053
59.8376
59.7826
59.7489
59.7257
59.7104
59.7411
59.7983
59.8565
59.8742
59.8751
59.8782
59.8689
59.8517
59.8600
59.8759
59.8784
59.8524
59.8398
59.8479
59.8588
59.8724
59.9130
59.9725
60.341
60.897
60.1176
60.1180
60.1229
60.1328
60.1507
60.1680
60.1845
60.1950
60.1691
60.1438
60.1425
60.1476
60.1531
60.1836
60.2460
60.3138
60.3458
60.3520
60.3489
60.3326
60.2981
60.2793
60.2641
60.2418
60.1895
60.1405
60.1107
60.824
60.561
60.456
60.579
60.761
60.895
60.796
60.426
60.11
59.9727
59.9520
59.9327
59.9159
59.9024
59.8495
59.7835
59.7359
59.7117
59.6895
59.6859
59.7314
59.7949
59.8361
59.8400
59.8353
59.8294
59.8136
59.8023
59.8151
59.8253
59.8189
59.7922
59.7910
59.8019
59.8142
59.8396
59.8907
59.9528
60.194
60.727
60.980
60.1036
60.1157
60.1345
60.1576
60.1765
60.1973
60.1948
60.1645
60.1437
60.1449
60.1476
60.1477
60.1918
60.2623
60.3240
60.3469
60.3459
60.3396
60.3195
60.2860
60.2757
60.2643
60.2383
60.1858
60.1474
60.1264
60.990
60.813
60.801
60.967
60.1123
60.1206
60.978
60.507
60.85
59.9783
59.9549
59.9368
59.9225
59.8940
59.8321
59.7702
59.7359
59.7141
59.6960
59.7104
59.7673
59.8320
59.8604
59.8670
59.8690
59.8655
59.8523
59.8574
59.8720
59.8779
59.8570
59.8328
59.8317
59.8363
59.8484
59.8735
59.9301
59.9895
60.529
60.905
60.1026
60.1074
60.1278
60.1502
60.1748
60.1981
60.2192
60.2027
60.1747
60.1668
60.1722
60.1685
60.1828
60.2369
60.3075
60.3521
60.3633
60.3573
60.3473
60.3182
60.2921
60.2791
60.2564
60.2106
60.1542
60.1212
60.919
60.638
60.478
60.585
60.741
60.897
60.883
60.596
60.168
59.9832
59.9588
59.9428
59.9239
59.9091
59.8630
59.7900
59.7318
59.6926
59.6641
59.6459
59.6753
59.7342
59.7846
59.7971
59.7919
59.7920
59.7824
59.7722
59.7807
59.7949
59.7964
59.7708
59.7576
59.7669
59.7752
59.7918
59.8295
59.8853
59.9498
60.47
60.362
60.406
60.447
60.598
60.805
60.988
60.1168
60.1253
60.925
60.617
60.551
60.545
60.514
60.800
60.1398
60.2082
60.2377
60.2437
60.2460
60.2331
60.2057
60.1914
60.1823
60.1648
60.1121
60.636
60.292
59.9964
59.9666
59.9536
59.9639
59.9801
59.9926
59.9799
59.9397
59.8986
59.8631
59.8390
59.8199
59.8047
59.7908
59.7391
59.6719
59.6251
59.5968
59.5763
59.5716
59.6169
59.6817
59.7245
59.7376
59.7413
59.7470
59.7387
59.7321
59.7499
59.7631
59.7582
59.7352
59.7282
59.7376
59.7440
59.7628
59.8087
59.8696
59.9380
59.9950
60.271
60.363
60.577
60.874
60.1183
60.1436
60.1685
60.1714
60.1405
60.1207
60.1231
60.1271
60.1269
60.1665
60.2330
60.2935
60.3186
60.3272
60.3266
60.3077
60.2816
60.2695
60.2585
60.2303
60.1790
60.1404
60.1153
60.880
60.699
60.727
60.959
60.1193
60.1363
60.1214
60.842
60.476
60.187
59.9980
59.9796
59.9582
59.9283
59.8616
59.7965
59.7546
59.7261
59.7047
59.7184
59.7749
59.8423
59.8776
59.8835
59.8889
59.8879
59.8765
59.8791
59.8960
59.9036
59.8866
59.8651
59.8652
59.8726
59.8840
59.9111
59.9637
60.277
60.916
60.1320
60.1428
60.1499
60.1630
60.1854
60.2065
60.2220
60.2431
60.2255
60.1935
60.1803
60.1859
60.1866
60.1977
60.2495
60.3196
60.3647
60.3773
60.3786
60.3710
60.3417
60.3168
60.3106
60.2881
60.2445
60.1845
60.1467
60.1153
60.806
60.587
60.647
60.796
60.975
60.963
60.665
60.259
59.9919
59.9631
59.9428
59.9220
59.9067
59.8605
59.7888
59.7312
59.6969
59.6692
59.6524
59.6815
59.7386
59.7867
59.7995
59.7962
59.7957
59.7834
59.7688
59.7782
59.7888
59.7863
59.7618
59.7444
59.7494
59.7573
59.7768
59.8157
59.8748
59.9432
60.33
60.363
60.401
60.499
60.695
60.920
60.1114
60.1277
60.1365
60.1024
60.725
60.651
60.661
60.637
60.874
60.1482
60.2138
60.2460
60.2526
60.2577
60.2477
60.2210
60.2079
60.2006
60.1805
60.1347
60.830
60.532
60.257
59.9989
59.9840
59.9943
60.111
60.275
60.205
59.9834
59.9422
59.9114
59.8885
59.8680
59.8490
59.8296
59.7769
59.7081
59.6577
59.6300
59.6081
59.6030
59.6490
59.7195
59.7671
59.7779
59.7826
59.7899
59.7844
59.7805
59.7984
59.8092
59.8038
59.7767
59.7715
59.7765
59.7828
59.8002
59.8475
59.9080
59.9760
60.284
60.561
60.660
60.834
60.1075
60.1360
60.1614
60.1873
60.1898
60.1599
60.1421
60.1408
60.1477
60.1525
60.1978
60.2709
60.3330
60.3595
60.3611
60.3612
60.3355
60.3004
60.2861
60.2709
60.2389
60.1796
60.1377
60.1071
60.792
60.594
60.613
60.800
60.1058
60.1179
60.1043
60.627
60.257
59.9996
59.9799
59.9584
59.9440
59.9153
59.8525
59.7924
59.7545
59.7296
59.7087
59.7206
59.7735
59.8370
59.8636
59.8658
59.8642
59.8614
59.8493
59.8483
59.8642
59.8717
59.8492
59.8296
59.8337
59.8445
59.8594
59.8881
59.9459
60.98
60.747
60.1174
60.1269
60.1323
60.1457
60.1650
60.1837
60.2006
60.2143
60.1903
60.1535
60.1400
60.1422
60.1414
60.1545
60.2102
60.2823
60.3298
60.3472
60.3502
60.3440
60.3194
60.2964
60.2906
60.2733
60.2294
60.1747
60.1351
60.1049
60.724
60.542
60.637
60.777
60.950
60.935
60.626
60.185
59.9825
59.9566
59.9348
59.9136
59.9007
59.8603
59.7982
59.7453
59.7174
59.6951
59.6773
59.7071
59.7705
59.8255
59.8438
59.8447
59.8498
59.8385
59.8261
59.8323
59.8436
59.8410
59.8154
59.8010
59.8042
59.8124
59.8301
59.8680
59.9289
59.9955
60.563
60.887
60.964
60.1122
60.1373
60.1631
60.1907
60.2159
60.2278
60.2015
60.1747
60.1714
60.1775
60.1746
60.2025
60.2662
60.3304
60.3621
60.3679
60.3654
60.3451
60.3148
60.2988
60.2889
60.2683
60.2201
60.1739
60.1446
60.1153
60.944
60.892
60.1068
60.1258
60.1412
60.1330
60.966
60.567
60.248
60.7
59.9813
59.9600
59.9395
59.8781
59.8070
59.7617
59.7332
59.7104
59.7101
59.7614
59.8305
59.8742
59.8860
59.8852
59.8902
59.8737
59.8740
59.8912
59.9005
59.8925
59.8746
59.8793
59.8919
59.9067
59.9324
59.9861
60.452
60.1081
60.1527
60.1699
60.1712
60.1838
60.2050
60.2304
60.2500
60.2744
60.2691
60.2367
60.2200
60.2283
60.2318
60.2415
60.2938
60.3634
60.4222
60.4389
60.4383
60.4356
60.4118
60.3867
60.3786
60.3634
60.3266
60.2686
60.2308
60.2034
60.1713
60.1548
60.1572
60.1693
60.1893
60.1959
60.1685
60.1245
60.903
60.638
60.469
60.288
60.173
59.9844
59.9166
59.8610
59.8314
59.8068
59.7887
59.8071
59.8601
59.9137
59.9284
59.9252
59.9227
59.9084
59.8901
59.8946
59.9079
59.9076
59.8839
59.8705
59.8746
59.8841
59.9010
59.9349
59.9970
60.608
60.1214
60.1573
60.1618
60.1709
60.1927
60.2146
60.2360
60.2547
60.2677
60.2382
60.2091
60.1985
60.1984
60.1922
60.2131
60.2675
60.3314
60.3614
60.3670
60.3638
60.3512
60.3228
60.3074
60.3003
60.2850
60.2393
60.1900
60.1608
60.1325
60.1075
60.943
60.1076
60.1267
60.1445
60.1359
60.993
60.571
60.244
59.9976
59.9769
59.9548
59.9381
59.8857
59.8210
59.7754
59.7483
59.7290
59.7234
59.7662
59.8353
59.8859
59.8981
59.8981
59.8995
59.8838
59.8759
59.8924
59.9034
59.8987
59.8739
59.8672
59.8753
59.8868
59.9047
59.9531
60.124
60.745
60.1239
60.1469
60.1500
60.1625
60.1789
60.2011
60.2237
60.2470
60.2477
60.2182
60.1993
60.1994
60.2042
60.2091
60.2536
60.3250
60.3872
60.4086
60.4102
60.4072
60.3833
60.3487
60.3329
60.3196
60.2867
60.2329
60.1959
60.1690
60.1437
60.1205
60.1262
60.1456
60.1669
60.1789
60.1652
60.1226
60.842
60.566
60.371
60.189
60.54
59.9744
59.9125
59.8548
59.8179
59.7924
59.7720
59.7868
59.8411
59.9034
59.9313
59.9319
59.9324
59.9279
59.9130
59.9140
59.9310
59.9358
59.9180
59.9015
59.9096
59.9214
59.9410
59.9740
60.320
60.947
60.1551
60.1963
60.1993
60.2006
60.2149
60.2313
60.2500
60.2650
60.2814
60.2592
60.2301
60.2233
60.2264
60.2284
60.2449
60.2983
60.3672
60.4058
60.4123
60.4085
60.3952
60.3634
60.3408
60.3311
60.3117
60.2661
60.2145
60.1827
60.1563
60.1263
60.1106
60.1185
60.1318
60.1419
60.1314
60.926
60.387
59.9996
59.9717
59.9478
59.9278
59.9138
59.8674
59.8039
59.7574
59.7383
59.7175
59.7107
59.7482
59.8123
59.8646
59.8737
59.8727
59.8713
59.8595
59.8449
59.8543
59.8624
59.8621
59.8358
59.8275
59.8350
59.8456
59.8674
59.9115
59.9731
60.392
60.920
60.1192
60.1226
60.1328
60.1525
60.1728
60.1936
60.2168
60.2201
60.1891
60.1693
60.1696
60.1754
60.1780
60.2104
60.2756
60.3388
60.3637
60.3619
60.3538
60.3278
60.2939
60.2749
60.2596
60.2334
60.1788
60.1344
60.1105
60.871
60.665
60.610
60.780
60.980
60.1077
60.892
60.450
60.0
59.9652
59.9367
59.9109
59.8890
59.8689
59.8079
59.7426
59.6969
59.6697
59.6477
59.6513
59.6951
59.7563
59.7916
59.7929
59.7881
59.7852
59.7701
59.7662
59.7828
59.7952
59.7839
59.7621
59.7653
59.7765
59.7907
59.8235
59.8789
59.9458
60.117
60.565
60.709
60.738
60.847
60.1033
60.1215
60.1369
60.1591
60.1479
60.1175
60.1040
60.1137
60.1231
60.1377
60.1925
60.2663
60.3270
60.3458
60.3483
60.3448
60.3167
60.2859
60.2743
60.2554
60.2205
60.1644
60.1305
60.1056
60.809
60.663
60.711
60.892
60.1085
60.1137
60.899
60.425
60.30
59.9728
59.9530
59.9365
59.9236
59.8934
59.8349
59.7818
59.7528
59.7337
59.7213
59.7436
59.8034
59.8619
59.8816
59.8800
59.8756
59.8617
59.8441
59.8443
59.8563
59.8579
59.8351
59.8221
59.8307
59.8452
59.8644
59.9036
59.9629
60.280
60.912
60.1244
60.1275
60.1310
60.1442
60.1623
60.1795
60.1928
60.2065
60.1833
60.1530
60.1435
60.1442
60.1455
60.1659
60.2222
60.2874
60.3195
60.3231
60.3164
60.3013
60.2707
60.2497
60.2382
60.2173
60.1716
60.1226
60.932
60.667
60.393
60.266
60.414
60.586
60.766
60.688
60.307
59.9824
59.9455
59.9122
59.8853
59.8610
59.8416
59.7917
59.7216
59.6712
59.6433
59.6232
59.6161
59.6570
59.7245
59.7754
59.7874
59.7874
59.7850
59.7696
59.7560
59.7665
59.7782
59.7763
59.7499
59.7414
59.7503
59.7622
59.7838
59.8246
59.8854
59.9457
59.9991
60.198
60.185
60.225
60.415
60.613
