=~=~=~=~=~=~=~=~=~=~=~= PuTTY log 2025.04.16 15:21:32 =~=~=~=~=~=~=~=~=~=~=~=




Speed (Hz)
60.319
59.9180
59.8154
59.8071
59.8530
59.8993
59.9211
59.8943
59.8493
59.8220
59.8417
59.8737
59.8160
59.7213
59.7196
59.8014
59.8605
59.8665
59.8325
59.8195
59.8373
59.8746
59.9269
59.9192
59.8712
59.8597
59.9070
59.9865
60.432
60.369
60.215
60.472
60.1038
60.1475
60.1080
60.360
60.355
60.963
60.1617
60.2242
60.2430
60.2305
60.2155
60.2479
60.3064
60.2815
60.1891
60.1760
60.2498
60.3135
60.3256
60.2845
60.2490
60.2331
60.2457
60.2778
60.2587
60.1689
60.1087
60.1255
60.1668
60.1892
60.1407
60.878
60.665
60.803
60.938
60.324
59.9059
59.8384
59.8588
59.9054
59.9450
59.9410
59.9110
59.8764
59.8672
59.9026
59.9160
59.8249
59.7564
59.7906
59.8606
59.8976
59.8730
59.8370
59.8343
59.8563
59.8977
59.9353
59.8964
59.8400
59.8483
59.9133
59.9889
60.193
59.9965
59.9962
60.378
60.926
60.1064
60.344
59.9823
60.134
60.713
60.1345
60.1877
60.1892
60.1708
60.1651
60.2038
60.2370
60.1639
60.872
60.1129
60.1860
60.2237
60.2028
60.1541
60.1244
60.1185
60.1422
60.1711
60.1173
60.340
60.92
60.353
60.693
60.707
60.210
59.9809
59.9741
59.9847
59.9839
59.8938
59.7800
59.7390
59.7685
59.8126
59.8465
59.8259
59.7873
59.7560
59.7596
59.8001
59.7792
59.6792
59.6469
59.7150
59.7830
59.8005
59.7603
59.7416
59.7527
59.7810
59.8316
59.8526
59.8002
59.7624
59.7977
59.8755
59.9464
59.9515
59.9253
59.9353
59.9869
60.389
60.346
59.9481
59.9228
59.9676
60.300
60.983
60.1356
60.1334
60.1139
60.1259
60.1876
60.2095
60.1244
60.672
60.1167
60.1879
60.2122
60.1772
60.1365
60.1192
60.1202
60.1482
60.1604
60.901
60.108
60.8
60.402
60.781
60.613
60.110
59.9793
59.9776
59.9973
59.9924
59.8869
59.7876
59.7779
59.8277
59.8694
59.8864
59.8600
59.8196
59.7911
59.8085
59.8452
59.7908
59.6978
59.7002
59.7829
59.8438
59.8444
59.8012
59.7938
59.8100
59.8465
59.8998
59.8937
59.8338
59.8185
59.8704
59.9517
60.115
60.47
59.9902
60.223
60.807
60.1255
60.890
60.184
60.172
60.744
60.1367
60.1967
60.2124
60.2051
60.1932
60.2203
60.2787
60.2559
60.1628
60.1532
60.2279
60.2882
60.3009
60.2596
60.2233
60.2061
60.2194
60.2537
60.2356
60.1514
60.976
60.1166
60.1547
60.1746
60.1319
60.793
60.628
60.757
60.901
60.414
59.9101
59.8372
59.8570
59.9049
59.9413
59.9358
59.9136
59.8791
59.8643
59.9004
59.9133
59.8255
59.7623
59.8031
59.8806
59.9174
59.8949
59.8579
59.8551
59.8735
59.9154
59.9482
59.9045
59.8516
59.8655
59.9319
60.57
60.314
60.75
60.8
60.399
60.949
60.1141
60.444
59.9933
60.276
60.932
60.1586
60.2089
60.2130
60.1930
60.1919
60.2380
60.2770
60.2105
60.1285
60.1505
60.2224
60.2603
60.2446
60.1962
60.1621
60.1562
60.1804
60.2122
60.1637
60.772
60.454
60.758
60.1183
60.1278
60.726
60.285
60.255
60.428
60.414
59.9520
59.8342
59.8031
59.8441
59.8872
59.9200
59.9026
59.8649
59.8273
59.8240
59.8619
59.8335
59.7405
59.7087
59.7761
59.8445
59.8673
59.8323
59.8136
59.8283
59.8594
59.9089
59.9278
59.8765
59.8443
59.8824
59.9615
60.356
60.407
60.181
60.303
60.825
60.1322
60.1242
60.487
60.261
60.789
60.1435
60.2079
60.2369
60.2352
60.2194
60.2378
60.2951
60.3073
60.2168
60.1701
60.2271
60.2987
60.3258
60.2945
60.2565
60.2354
60.2390
60.2667
60.2783
60.2003
60.1240
60.1187
60.1534
60.1833
60.1567
60.986
60.645
60.675
60.804
60.579
59.9437
59.8556
59.8590
59.8984
59.9333
59.9414
59.9221
59.8862
59.8641
59.8895
59.9179
59.8485
59.7643
59.7801
59.8560
59.9059
59.8943
59.8511
59.8413
59.8587
59.8926
59.9372
59.9124
59.8545
59.8560
59.9154
59.9957
60.424
60.268
60.198
60.575
60.1162
60.1490
60.911
60.189
60.287
60.959
60.1652
60.2305
60.2466
60.2295
60.2180
60.2488
60.2993
60.2594
60.1695
60.1637
60.2413
60.2930
60.2909
60.2454
60.2094
60.1953
60.2161
60.2501
60.2205
60.1315
60.870
60.1105
60.1481
60.1636
60.1156
60.636
60.423
60.542
60.667
60.21
59.8713
59.8040
59.8309
59.8805
59.9205
59.9118
59.8748
59.8308
59.8168
59.8464
59.8563
59.7682
59.7054
59.7497
59.8217
59.8562
59.8255
59.7976
59.7969
59.8192
59.8633
59.9002
59.8594
59.8161
59.8329
59.9016
59.9717
59.9900
59.9626
59.9600
60.37
60.570
60.644
59.9881
59.9438
59.9775
60.458
60.1184
60.1703
60.1705
60.1533
60.1560
60.2060
60.2446
60.1698
60.938
60.1274
60.2066
60.2443
60.2254
60.1791
60.1469
60.1407
60.1638
60.1934
60.1335
60.522
60.271
60.542
60.838
60.769
60.190
59.9798
59.9771
59.9980
60.54
59.9103
59.7997
59.7774
59.8213
59.8619
59.8894
59.8678
59.8291
59.8027
59.8141
59.8512
59.8163
59.7175
59.6909
59.7594
59.8273
59.8461
59.8080
59.7877
59.7992
59.8367
59.8895
59.8980
59.8475
59.8274
59.8652
59.9396
60.105
60.126
59.9959
60.161
60.700
60.1209
60.1006
60.209
60.67
60.653
60.1373
60.2094
60.2407
60.2279
60.2054
60.2228
60.2787
60.2798
60.1809
60.1390
60.2027
60.2668
60.2895
60.2595
60.2239
60.2094
60.2153
60.2476
60.2571
60.1828
60.1121
60.1126
60.1516
60.1787
60.1523
60.972
60.667
60.692
60.852
60.610
59.9435
59.8546
59.8578
59.9011
59.9442
59.9552
59.9312
59.8929
59.8642
59.8898
59.9200
59.8546
59.7733
59.7876
59.8644
59.9124
59.9096
59.8711
59.8624
59.8819
59.9207
59.9617
59.9353
59.8768
59.8758
59.9341
60.126
60.591
60.373
60.257
60.516
60.1023
60.1365
60.840
60.202
60.356
60.1020
60.1658
60.2182
60.2223
60.2029
60.1922
60.2295
60.2784
60.2266
60.1264
60.1212
60.1949
60.2462
60.2426
60.1946
60.1590
60.1398
60.1522
60.1849
60.1548
60.635
60.141
60.323
60.701
60.836
60.358
59.9884
59.9737
59.9848
59.9998
59.9341
59.8100
59.7516
59.7730
59.8194
59.8570
59.8517
59.8137
59.7687
59.7522
59.7813
59.7841
59.6938
59.6369
59.6870
59.7615
59.7887
59.7616
59.7316
59.7355
59.7623
59.8128
59.8440
59.7963
59.7517
59.7746
59.8505
59.9292
59.9489
59.9226
59.9207
59.9606
60.142
60.309
59.9628
59.9187
59.9520
60.195
60.859
60.1318
60.1346
60.1178
60.1186
60.1652
60.2006
60.1294
60.548
60.861
60.1649
60.2059
60.1948
60.1445
60.1139
60.1099
60.1330
60.1633
60.1095
60.187
59.9868
60.175
60.497
60.471
59.9925
59.9525
59.9459
59.9626
59.9645
59.8760
59.7617
59.7356
59.7748
59.8167
59.8450
59.8291
59.7912
59.7556
59.7669
59.8115
59.7867
59.6928
59.6649
59.7370
59.8026
59.8178
59.7769
59.7590
59.7672
59.8003
59.8501
59.8604
59.8066
59.7718
59.8067
59.8869
59.9632
59.9722
59.9538
59.9636
60.132
60.693
60.565
59.9815
59.9680
60.234
60.910
60.1557
60.1829
60.1751
60.1519
60.1649
60.2172
60.2226
60.1308
60.815
60.1375
60.2107
60.2374
60.2060
60.1626
60.1389
60.1425
60.1755
60.1883
60.1169
60.432
60.440
60.837
60.1126
60.865
60.281
59.9957
59.9998
60.217
60.23
59.8792
59.7886
59.7909
59.8401
59.8784
59.8847
59.8502
59.8113
59.7878
59.8107
59.8461
59.7883
59.6957
59.6970
59.7738
59.8253
59.8217
59.7823
59.7742
59.7904
59.8268
59.8743
59.8618
59.8073
59.7995
59.8489
59.9220
59.9709
59.9521
59.9388
59.9637
60.151
60.471
59.9984
59.9320
59.9436
60.40
60.719
60.1316
60.1502
60.1364
60.1235
60.1541
60.2084
60.1775
60.868
60.791
60.1477
60.2021
60.2082
60.1650
60.1330
60.1134
60.1225
60.1546
60.1417
60.542
59.9966
60.98
60.513
60.719
60.267
59.9756
59.9593
59.9754
59.9919
59.9510
59.8333
59.7641
59.7877
59.8371
59.8773
59.8737
59.8401
59.8060
59.7927
59.8250
59.8341
59.7480
59.6816
59.7178
59.7927
59.8303
59.8078
59.7738
59.7764
59.8015
59.8440
59.8829
59.8448
59.7959
59.8065
59.8747
59.9568
59.9883
59.9672
59.9662
60.87
60.699
60.918
60.190
59.9628
59.9914
60.627
60.1316
60.1797
60.1841
60.1681
60.1648
60.2082
60.2500
60.1799
60.991
60.1183
60.1939
60.2422
60.2384
60.1949
60.1710
60.1646
60.1855
60.2211
60.1724
60.891
60.587
60.821
60.1175
60.1164
60.648
60.236
60.182
60.311
60.324
59.9495
59.8304
59.7898
59.8270
59.8722
59.9032
59.8927
59.8565
59.8154
59.8164
59.8606
59.8399
59.7381
59.7035
59.7663
59.8352
59.8553
59.8159
59.7928
59.8036
59.8346
59.8844
59.9004
59.8471
59.8120
59.8486
59.9213
59.9847
59.9879
59.9646
59.9732
60.206
60.756
60.704
59.9924
59.9669
60.179
60.850
60.1577
60.1975
60.1979
60.1825
60.1939
60.2458
60.2538
60.1683
60.1176
60.1678
60.2370
60.2680
60.2358
60.1909
60.1646
60.1642
60.2008
60.2225
60.1507
60.757
60.706
60.1062
60.1377
60.1180
60.689
60.393
60.436
60.628
60.498
59.9377
59.8404
59.8301
59.8769
59.9184
59.9348
59.9134
59.8760
59.8422
59.8511
59.8792
59.8195
59.7303
59.7325
59.8078
59.8614
59.8616
59.8217
59.8069
59.8229
59.8615
59.9095
59.9005
59.8397
59.8251
59.8783
59.9560
60.85
59.9936
59.9748
59.9956
60.532
60.930
60.474
59.9741
59.9768
60.351
60.1021
60.1688
60.1864
60.1696
60.1550
60.1870
60.2459
60.2164
60.1244
60.1123
60.1896
60.2482
60.2542
60.2136
60.1773
60.1643
60.1768
60.2174
60.2012
60.1096
60.519
60.629
60.963
60.1161
60.749
60.218
60.19
60.141
60.279
59.9824
59.8586
59.7952
59.8124
59.8604
59.9039
59.9038
59.8734
59.8362
59.8263
59.8641
59.8787
59.7949
59.7285
59.7675
59.8496
59.8906
59.8680
59.8312
59.8248
59.8478
59.8970
59.9378
59.8964
59.8450
59.8619
59.9321
60.133
60.490
60.285
60.264
60.711
60.1313
60.1572
60.926
60.451
60.729
60.1461
60.2148
60.2665
60.2694
60.2496
60.2545
60.3016
60.3376
60.2643
60.1831
60.2086
60.2854
60.3233
60.3104
60.2708
60.2459
60.2386
60.2596
60.2887
60.2383
60.1557
60.1284
60.1555
60.1913
60.1949
60.1446
60.1097
60.1041
60.1135
60.1087
60.151
59.9027
59.8801
59.9207
59.9533
59.9732
59.9533
59.9124
59.8785
59.8886
59.9280
59.8956
59.7983
59.7748
59.8446
59.9109
59.9275
59.8955
59.8769
59.8865
59.9183
59.9703
59.9826
59.9289
59.8971
59.9369
60.134
60.855
60.873
60.625
60.721
60.1225
60.1718
60.1475
60.682
60.516
60.1090
60.1795
60.2483
60.2750
60.2656
60.2514
60.2711
60.3242
60.3141
60.2173
60.1785
60.2450
60.3142
60.3352
60.2890
60.2456
60.2247
60.2277
60.2550
60.2541
60.1693
60.1055
60.1023
60.1351
60.1586
60.1240
60.671
60.411
60.513
60.706
60.417
59.9194
59.8338
59.8410
59.8858
59.9254
59.9366
59.9052
59.8612
59.8386
59.8616
59.8857
59.8052
59.7187
59.7373
59.8153
59.8630
59.8481
59.8103
59.8060
59.8251
59.8642
59.9124
59.8849
59.8250
59.8237
59.8810
59.9606
60.111
59.9912
59.9746
60.142
60.760
60.1072
60.569
59.9958
60.91
60.730
60.1403
60.1918
60.1994
60.1864
60.1768
60.2138
60.2615
60.2105
60.1185
60.1238
60.2019
60.2552
60.2575
60.2143
60.1886
60.1818
60.1945
60.2287
60.1994
60.1083
60.720
60.944
60.1363
60.1476
60.981
60.531
60.443
60.561
60.642
60.23
59.8785
59.8225
59.8489
59.8961
59.9304
59.9173
59.8837
59.8508
59.8471
59.8904
59.8935
59.8023
59.7479
59.8022
59.8785
59.9121
59.8866
59.8585
59.8598
59.8857
59.9301
59.9599
59.9133
59.8791
59.9054
59.9760
60.479
60.609
60.400
60.497
60.989
60.1538
60.1559
60.794
60.469
60.894
60.1573
60.2270
60.2741
60.2727
60.2544
60.2636
60.3190
60.3435
60.2540
60.1899
60.2360
60.3053
60.3314
60.3024
60.2587
60.2358
60.2347
60.2598
60.2792
60.2122
60.1295
60.1174
60.1479
60.1800
60.1629
60.1053
60.704
60.741
60.942
60.810
59.9718
59.8677
59.8630
59.9083
59.9449
59.9611
59.9368
59.8975
59.8673
59.8777
59.9098
59.8583
59.7611
59.7496
59.8210
59.8709
59.8780
59.8412
59.8236
59.8363
59.8718
59.9225
59.9214
59.8640
59.8496
59.8968
59.9682
60.252
60.139
59.9916
60.73
60.563
60.1006
60.702
59.9988
59.9926
60.478
60.1115
60.1774
60.1971
60.1779
60.1548
60.1770
60.2338
60.2196
60.1269
60.1071
60.1757
60.2356
60.2456
60.2058
60.1700
60.1463
60.1564
60.1960
60.1908
60.1000
60.379
60.476
60.805
60.982
60.586
60.33
59.9785
59.9862
60.8
59.9635
59.8443
59.7688
59.7816
59.8227
59.8648
59.8760
59.8511
59.8105
59.7917
59.8184
59.8387
59.7543
59.6775
59.7070
59.7839
59.8213
59.8066
59.7728
59.7705
59.7905
59.8265
59.8659
59.8341
59.7803
59.7805
59.8402
59.9185
59.9537
59.9328
59.9308
59.9640
60.194
60.510
59.9932
59.9365
59.9585
60.180
60.824
60.1454
60.1569
60.1444
60.1370
60.1719
60.2183
60.1672
60.718
60.716
60.1452
60.1967
60.1938
60.1434
60.1110
60.956
60.1126
60.1492
60.1216
60.375
59.9992
60.253
60.606
60.730
60.292
59.9844
59.9702
59.9851
59.9930
59.9184
59.7924
59.7458
59.7805
59.8273
59.8608
59.8488
59.8090
59.7678
59.7622
59.7975
59.7877
59.6869
59.6331
59.6864
59.7644
59.7983
59.7713
59.7422
59.7414
59.7704
59.8238
59.8525
59.8061
59.7688
59.7924
59.8644
59.9382
59.9547
59.9286
59.9288
59.9718
60.190
60.291
59.9592
59.9226
59.9628
60.316
60.1007
60.1413
60.1409
60.1227
60.1289
60.1796
60.2099
60.1326
60.661
60.1020
60.1828
60.2233
60.1997
60.1560
60.1319
60.1348
60.1625
60.1837
60.1209
60.338
60.86
60.384
60.672
60.599
60.115
59.9762
59.9721
59.9878
59.9833
59.8867
59.7806
59.7637
59.8036
59.8518
59.8838
59.8666
59.8232
59.7891
59.7973
59.8326
59.7954
59.7012
59.6789
59.7456
59.8049
59.8149
59.7726
59.7555
59.7735
59.8080
59.8527
59.8619
59.8027
59.7725
59.8108
59.8891
59.9601
59.9657
59.9447
59.9573
60.100
60.567
60.345
59.9576
59.9412
59.9989
60.706
60.1350
60.1560
60.1464
60.1293
60.1475
60.2014
60.2046
60.1137
60.725
60.1286
60.1955
60.2131
60.1778
60.1408
60.1227
60.1286
60.1590
60.1688
60.987
60.320
60.384
60.781
60.1065
60.760
60.244
59.9995
60.42
60.165
59.9828
59.8599
59.7767
59.7806
59.8254
59.8664
59.8812
59.8585
59.8188
59.7995
59.8246
59.8534
59.7794
59.6959
59.7221
59.8076
59.8552
59.8502
59.8158
59.8115
59.8253
59.8624
59.9161
59.9038
59.8492
59.8413
59.8972
59.9738
60.258
60.176
60.111
60.439
60.999
60.1331
60.846
60.233
60.419
60.1107
60.1767
60.2385
60.2560
60.2412
60.2331
60.2753
60.3327
60.2891
60.2045
60.2056
60.2850
60.3341
60.3286
60.2822
60.2522
60.2418
60.2597
60.2969
60.2624
60.1701
60.1257
60.1550
60.1943
60.2084
60.1587
60.1154
60.1073
60.1271
60.1382
60.690
59.9432
59.8906
59.9218
59.9671
60.49
59.9967
59.9629
59.9217
59.9155
59.9519
59.9404
59.8400
59.7831
59.8350
59.9114
59.9430
59.9154
59.8845
59.8824
59.9103
59.9629
59.9935
59.9455
59.9043
59.9290
60.42
60.800
60.921
60.647
60.679
60.1160
60.1708
60.1732
60.913
60.500
60.914
60.1639
60.2360
60.2714
60.2674
60.2504
60.2556
60.3053
60.3279
60.2364
60.1707
60.2182
60.2946
60.3213
60.2962
60.2540
60.2257
60.2263
60.2496
60.2668
60.1991
60.1195
60.1062
60.1368
60.1659
60.1444
60.885
60.490
60.449
60.609
60.481
59.9373
59.8354
59.8232
59.8696
59.9074
59.9269
59.9067
59.8716
59.8436
59.8601
59.8945
59.8427
59.7488
59.7389
59.8122
59.8737
59.8780
59.8383
59.8216
59.8282
59.8572
59.9112
59.9135
59.8595
59.8376
59.8822
59.9620
60.221
60.161
60.13
60.247
60.757
60.1186
60.926
60.199
60.186
60.838
60.1537
60.2153
60.2303
60.2182
60.2098
60.2408
60.2941
60.2678
60.1686
60.1440
60.2140
60.2740
60.2882
60.2478
60.2124
60.1987
60.2062
60.2392
60.2336
60.1508
60.957
60.1053
60.1439
60.1682
60.1274
60.790
60.627
60.780
60.929
60.477
59.9250
59.8597
59.8807
59.9205
59.9584
59.9547
59.9217
59.8843
59.8645
59.8938
59.9123
59.8296
59.7595
59.7935
59.8728
59.9148
59.8969
59.8610
59.8596
59.8873
59.9367
59.9828
59.9492
59.9003
59.9137
59.9799
60.587
60.907
60.693
60.636
60.1043
60.1560
60.1731
60.1048
60.547
60.878
60.1594
60.2249
60.2748
60.2815
60.2663
60.2662
60.3110
60.3515
60.2815
60.2016
60.2284
60.3065
60.3550
60.3424
60.3013
60.2742
60.2689
60.2930
60.3208
60.2704
60.1821
60.1501
60.1827
60.2140
60.2073
60.1507
60.1111
60.1101
60.1265
60.1316
60.405
59.9324
59.9090
59.9471
59.9887
60.185
60.16
59.9683
59.9394
59.9453
59.9785
59.9434
59.8434
59.8159
59.8857
59.9538
59.9702
59.9277
59.9042
59.9055
59.9277
59.9731
59.9860
59.9319
59.9050
59.9390
60.84
60.756
60.739
60.493
60.599
60.1074
60.1522
60.1326
60.539
60.384
60.885
60.1529
60.2112
60.2300
60.2180
60.2001
60.2178
60.2695
60.2582
60.1570
60.1132
60.1706
60.2389
60.2592
60.2181
60.1768
60.1551
60.1595
60.1967
60.2064
60.1231
60.505
60.521
60.813
60.1058
60.733
60.179
59.9904
59.9957
60.104
59.9816
59.8575
59.7673
59.7726
59.8149
59.8504
59.8597
59.8314
59.7891
59.7612
59.7797
59.8128
59.7444
59.6626
59.6753
59.7525
59.8027
59.7961
59.7551
59.7496
59.7713
59.8060
59.8466
59.8325
59.7726
59.7615
59.8174
59.8936
59.9438
59.9248
59.9105
59.9438
60.1
60.401
59.9911
59.9237
59.9373
60.82
60.695
60.1303
60.1526
60.1405
60.1285
60.1633
60.2223
60.1888
60.930
60.774
60.1496
60.2099
60.2230
60.1827
60.1488
60.1370
60.1515
60.1840
60.1621
60.757
60.176
60.280
60.721
60.979
60.559
60.125
59.9985
60.93
60.243
59.9766
59.8611
59.8008
59.8223
59.8676
59.9120
59.9083
59.8705
59.8295
59.8160
59.8525
59.8639
59.7692
59.7020
59.7448
59.8218
59.8570
59.8318
59.8013
59.8033
59.8302
59.8790
59.9176
59.8828
59.8396
59.8561
59.9243
60.35
60.331
60.99
60.44
60.484
60.1041
60.1220
60.502
59.9999
60.339
60.1050
60.1694
60.2120
60.2119
60.1922
60.1908
60.2405
60.2789
60.2037
60.1201
60.1452
60.2267
60.2696
60.2493
60.2054
60.1843
60.1788
60.2032
60.2327
60.1739
60.892
60.621
60.861
60.1172
60.1130
60.564
60.95
60.16
60.151
60.131
59.9206
59.8073
59.7773
59.8266
59.8716
59.8920
59.8644
59.8328
59.8043
59.8047
59.8353
59.8080
59.7109
59.6816
59.7519
59.8213
59.8409
59.8001
59.7720
59.7785
59.8100
59.8558
59.8670
59.8124
59.7756
59.8090
59.8818
59.9515
59.9556
59.9303
59.9394
59.9872
60.468
60.408
59.9659
59.9419
59.9939
60.614
60.1268
60.1633
60.1533
60.1305
60.1405
60.1914
60.2007
60.1083
60.574
60.1140
60.1880
60.2188
60.1849
60.1479
60.1246
60.1233
60.1581
60.1727
60.973
60.301
60.279
60.646
60.939
60.763
60.316
60.54
60.86
60.258
60.70
59.8962
59.8072
59.8089
59.8534
59.8902
59.9041
59.8738
59.8352
59.8083
59.8280
59.8647
59.8037
59.7122
59.7131
59.7927
59.8523
59.8573
59.8206
59.8081
59.8246
59.8679
59.9214
59.9143
59.8584
59.8475
59.8952
59.9711
60.282
60.158
59.9968
60.260
60.816
60.1215
60.771
60.117
60.233
60.867
60.1568
60.2183
60.2356
60.2218
60.2098
60.2468
60.3050
60.2759
60.1860
60.1743
60.2478
60.3044
60.3120
60.2721
60.2423
60.2335
60.2506
60.2848
60.2607
60.1709
60.1162
60.1305
60.1660
60.1780
60.1315
60.802
60.700
60.883
60.1037
60.457
59.9194
59.8619
59.8900
59.9429
59.9805
59.9709
59.9363
59.8952
59.8859
59.9187
59.9210
59.8270
59.7670
59.8087
59.8871
59.9224
59.8981
59.8684
59.8641
59.8858
59.9243
59.9566
59.9146
59.8668
59.8785
59.9456
60.270
60.546
60.337
60.356
60.746
60.1287
60.1480
60.767
60.427
60.857
60.1485
60.2148
60.2556
60.2564
60.2336
60.2259
60.2678
60.2999
60.2207
60.1458
60.1809
60.2580
60.3020
60.2882
60.2456
60.2195
60.2136
60.2377
60.2652
60.2036
60.1197
60.995
60.1363
60.1687
60.1644
60.1100
60.689
