=~=~=~=~=~=~=~=~=~=~=~= PuTTY log 2025.04.16 15:15:16 =~=~=~=~=~=~=~=~=~=~=~=




Speed (Hz)
59.9269
59.9516
59.9826
59.9817
59.9733
59.9806
59.9841
59.9772
59.9558
59.9690
60.103
60.607
60.1198
60.2098
60.3123
60.4054
60.4848
60.5223
60.5221
60.5131
60.4884
60.4533
60.4018
60.3584
60.3047
60.2357
60.1960
60.2001
60.2098
60.2261
60.2839
60.3676
60.4471
60.4843
60.4874
60.4719
60.4180
60.3367
60.2648
60.1869
60.1093
60.156
59.9516
59.9258
59.9110
59.9138
59.9379
59.9854
60.362
60.766
60.865
60.537
60.53
59.9466
59.8798
59.8072
59.7347
59.6693
59.5823
59.5033
59.4692
59.4629
59.4718
59.5077
59.5922
59.6952
59.7662
59.7968
59.8073
59.8043
59.7682
59.7236
59.6922
59.6544
59.6084
59.5629
59.5605
59.5866
59.6219
59.6782
59.7680
59.8680
59.9668
60.455
60.846
60.876
60.821
60.680
60.452
60.178
59.9984
59.9645
59.9218
59.9141
59.9434
59.9847
60.314
60.1179
60.2245
60.3168
60.3609
60.3747
60.3672
60.3153
60.2438
60.1760
60.1068
60.311
59.9475
59.8997
59.8861
59.8841
59.8972
59.9374
59.9948
60.489
60.881
60.910
60.553
60.87
59.9484
59.8831
59.8160
59.7523
59.6882
59.6066
59.5494
59.5303
59.5355
59.5484
59.6017
59.6942
59.7865
59.8439
59.8598
59.8580
59.8362
59.7877
59.7428
59.7076
59.6694
59.6217
59.5896
59.6019
59.6373
59.6852
59.7553
59.8554
59.9597
60.546
60.1266
60.1528
60.1572
60.1505
60.1352
60.1144
60.842
60.619
60.174
59.9768
59.9786
60.52
60.392
60.877
60.1812
60.2851
60.3648
60.4027
60.4088
60.3969
60.3431
60.2759
60.2238
60.1607
60.898
60.183
59.9853
59.9797
59.9800
59.9977
60.453
60.935
60.1432
60.1728
60.1614
60.1193
60.637
59.9967
59.9304
59.8557
59.7973
59.7230
59.6377
59.5877
59.5797
59.5886
59.6120
59.6811
59.7747
59.8646
59.9138
59.9306
59.9324
59.9073
59.8576
59.8208
59.7856
59.7483
59.6905
59.6658
59.6786
59.7059
59.7512
59.8215
59.9192
60.123
60.1025
60.1555
60.1719
60.1753
60.1681
60.1494
60.1229
60.950
60.727
60.290
60.47
60.185
60.547
60.883
60.1535
60.2538
60.3519
60.4109
60.4311
60.4265
60.3925
60.3217
60.2501
60.1851
60.1148
60.315
59.9710
59.9506
59.9451
59.9552
59.9871
60.429
60.1007
60.1488
60.1672
60.1440
60.966
60.412
59.9765
59.9082
59.8375
59.7801
59.6971
59.6227
59.5871
59.5816
59.5934
59.6228
59.7000
59.7951
59.8698
59.8997
59.9084
59.9004
59.8581
59.8110
59.7768
59.7439
59.7021
59.6621
59.6599
59.6884
59.7293
59.7858
59.8743
59.9751
60.675
60.1453
60.1817
60.1835
60.1737
60.1564
60.1314
60.999
60.757
60.415
59.9980
59.9854
60.148
60.486
60.890
60.1683
60.2716
60.3628
60.4091
60.4238
60.4173
60.3710
60.3019
60.2407
60.1777
60.1113
60.310
59.9804
59.9655
59.9630
59.9734
60.39
60.597
60.1079
60.1450
60.1465
60.1128
60.652
60.65
59.9416
59.8712
59.8108
59.7524
59.6762
59.6191
59.5970
59.6023
59.6152
59.6614
59.7548
59.8480
59.9086
59.9291
59.9322
59.9134
59.8656
59.8219
59.7912
59.7562
59.7064
59.6750
59.6819
59.7132
59.7597
59.8231
59.9220
60.239
60.1170
60.1888
60.2173
60.2192
60.2166
60.2037
60.1827
60.1541
60.1369
60.960
60.557
60.560
60.845
60.1166
60.1623
60.2501
60.3489
60.4244
60.4535
60.4592
60.4438
60.3840
60.3149
60.2597
60.1979
60.1250
60.520
60.219
60.179
60.224
60.441
60.911
60.1484
60.1943
60.2257
60.2145
60.1713
60.1184
60.542
59.9852
59.9132
59.8540
59.7811
59.6947
59.6422
59.6297
59.6388
59.6545
59.7192
59.8098
59.8943
59.9382
59.9562
59.9558
59.9294
59.8822
59.8511
59.8187
59.7836
59.7304
59.7120
59.7299
59.7620
59.8089
59.8787
59.9733
60.624
60.1464
60.1924
60.2040
60.2006
60.1916
60.1736
60.1479
60.1243
60.999
60.524
60.281
60.417
60.764
60.1129
60.1773
60.2786
60.3759
60.4369
60.4559
60.4527
60.4168
60.3503
60.2853
60.2231
60.1527
60.655
60.33
59.9773
59.9703
59.9713
59.9957
60.460
60.930
60.1370
60.1538
60.1297
60.838
60.297
59.9670
59.9014
59.8336
59.7753
59.6968
59.6219
59.5859
59.5816
59.5937
59.6229
59.7038
59.7973
59.8693
59.8972
59.8994
59.8876
59.8455
59.7973
59.7615
59.7269
59.6838
59.6387
59.6363
59.6659
59.7109
59.7705
59.8583
59.9587
60.564
60.1364
60.1765
60.1832
60.1846
60.1730
60.1530
60.1217
60.984
60.609
60.120
59.9937
60.157
60.501
60.875
60.1650
60.2669
60.3572
60.4055
60.4224
60.4215
60.3799
60.3153
60.2575
60.1979
60.1295
60.481
60.22
59.9885
59.9834
59.9991
60.329
60.875
60.1353
60.1738
60.1769
60.1450
60.972
60.363
59.9710
59.9012
59.8349
59.7717
59.6842
59.6206
59.5988
59.6020
59.6196
59.6741
59.7665
59.8624
59.9259
59.9516
59.9558
59.9372
59.8920
59.8477
59.8120
59.7730
59.7201
59.6810
59.6897
59.7167
59.7586
59.8205
59.9132
60.126
60.1048
60.1727
60.1989
60.2022
60.1970
60.1837
60.1613
60.1331
60.1155
60.709
60.276
60.280
60.555
60.901
60.1380
60.2292
60.3278
60.4040
60.4315
60.4323
60.4148
60.3523
60.2788
60.2147
60.1429
60.645
59.9895
59.9523
59.9435
59.9475
59.9682
60.199
60.807
60.1348
60.1686
60.1640
60.1264
60.766
60.156
59.9454
59.8699
59.8053
59.7282
59.6431
59.5904
59.5751
59.5809
59.5997
59.6651
59.7632
59.8514
59.9000
59.9161
59.9139
59.8860
59.8372
59.8023
59.7701
59.7314
59.6772
59.6577
59.6800
59.7146
59.7681
59.8484
59.9507
60.505
60.1408
60.1985
60.2144
60.2138
60.2005
60.1807
60.1476
60.1131
60.881
60.381
60.60
60.146
60.466
60.821
60.1479
60.2506
60.3551
60.4222
60.4486
60.4520
60.4239
60.3571
60.2927
60.2294
60.1598
60.720
60.35
59.9741
59.9618
59.9650
59.9864
60.377
60.883
60.1336
60.1470
60.1258
60.778
60.215
59.9545
59.8826
59.8122
59.7525
59.6705
59.5981
59.5618
59.5623
59.5736
59.6037
59.6865
59.7845
59.8636
59.8974
59.9057
59.8971
59.8548
59.8041
59.7666
59.7260
59.6811
59.6280
59.6168
59.6371
59.6730
59.7256
59.8118
59.9158
60.168
60.1016
60.1465
60.1582
60.1632
60.1565
60.1370
60.1060
60.835
60.480
59.9997
59.9780
59.9940
60.252
60.591
60.1377
60.2400
60.3346
60.3836
60.3986
60.3958
60.3526
60.2893
60.2303
60.1674
60.1024
60.226
59.9741
59.9583
59.9554
59.9644
60.18
60.598
60.1153
60.1597
60.1679
60.1358
60.892
60.339
59.9685
59.9002
59.8309
59.7652
59.6793
59.6100
59.5783
59.5736
59.5838
59.6259
59.7130
59.8097
59.8756
59.9028
59.9113
59.9006
59.8562
59.8128
59.7814
59.7451
59.6919
59.6523
59.6526
59.6791
59.7199
59.7783
59.8706
59.9640
60.538
60.1231
60.1546
60.1551
60.1510
60.1377
60.1108
60.784
60.570
60.148
59.9719
59.9675
59.9943
60.281
60.725
60.1633
60.2688
60.3512
60.3909
60.4055
60.3912
60.3377
60.2667
60.2035
60.1335
60.535
59.9710
59.9299
59.9151
59.9130
59.9252
59.9691
60.261
60.756
60.1159
60.1109
60.731
60.243
59.9647
59.9013
59.8338
59.7734
59.7024
59.6218
59.5650
59.5511
59.5533
59.5732
59.6330
59.7272
59.8181
59.8670
59.8908
59.8899
59.8669
59.8161
59.7755
59.7379
59.7012
59.6449
59.6175
59.6272
59.6634
59.7132
59.7878
59.8909
59.9941
60.938
60.1576
60.1846
60.1872
60.1804
60.1595
60.1312
60.986
60.696
60.131
59.9734
59.9744
60.11
60.333
60.916
60.1890
60.2936
60.3640
60.3954
60.4006
60.3780
60.3152
60.2489
60.1903
60.1219
60.406
59.9718
59.9415
59.9371
59.9376
59.9599
60.108
60.650
60.1131
60.1335
60.1154
60.737
60.158
59.9503
59.8789
59.8039
59.7413
59.6588
59.5779
59.5345
59.5313
59.5401
59.5674
59.6473
59.7523
59.8396
59.8843
59.8991
59.9012
59.8694
59.8223
59.7891
59.7532
59.7088
59.6517
59.6365
59.6530
59.6864
59.7391
59.8194
59.9202
60.185
60.1093
60.1623
60.1790
60.1829
60.1781
60.1605
60.1323
60.1077
60.739
60.243
59.9997
60.158
60.502
60.899
60.1649
60.2695
60.3694
60.4244
60.4426
60.4391
60.4004
60.3293
60.2608
60.1953
60.1231
60.362
59.9757
59.9564
59.9491
59.9585
59.9904
60.495
60.1020
60.1473
60.1633
60.1380
60.924
60.388
59.9778
59.9075
59.8378
59.7732
59.6870
59.6124
59.5775
59.5745
59.5820
59.6203
59.7068
59.8041
59.8728
59.8963
59.9014
59.8870
59.8420
59.7942
59.7626
59.7251
59.6771
59.6353
59.6364
59.6635
59.7060
59.7665
59.8581
59.9599
60.573
60.1356
60.1720
60.1780
60.1757
60.1577
60.1342
60.1015
60.760
60.319
59.9826
59.9698
59.9921
60.226
60.641
60.1523
60.2591
60.3484
60.3934
60.4082
60.4020
60.3505
60.2840
60.2217
60.1557
60.807
59.9945
59.9475
59.9333
59.9289
59.9355
59.9734
60.269
60.761
60.1108
60.1099
60.727
60.226
59.9594
59.8937
59.8278
59.7599
59.6952
59.6105
59.5513
59.5322
59.5384
59.5532
59.6074
59.6964
59.7874
59.8415
59.8617
59.8649
59.8427
59.7909
59.7450
59.7061
59.6668
59.6115
59.5767
59.5851
59.6131
59.6569
59.7224
59.8204
59.9191
60.146
60.840
60.1102
60.1145
60.1108
60.964
60.731
60.451
60.240
59.9755
59.9386
59.9362
59.9639
59.9973
60.453
60.1352
60.2348
60.3098
60.3394
60.3463
60.3242
60.2622
60.1935
60.1334
60.682
59.9898
59.9227
59.8962
59.8932
59.8978
59.9202
59.9738
60.318
60.849
60.1165
60.1099
60.653
60.141
59.9529
59.8857
59.8164
59.7538
59.6813
59.6008
59.5516
59.5405
59.5511
59.5750
59.6477
59.7461
59.8390
59.8870
59.9041
59.9053
59.8775
59.8336
59.7952
59.7631
59.7239
59.6728
59.6517
59.6716
59.7049
59.7556
59.8317
59.9320
60.282
60.1163
60.1705
60.1809
60.1802
60.1689
60.1491
60.1217
60.940
60.688
60.187
59.9929
60.70
60.404
60.776
60.1452
60.2470
60.3438
60.4047
60.4275
60.4284
60.3977
60.3328
60.2661
60.2003
60.1297
60.432
59.9755
59.9506
59.9429
59.9462
59.9685
60.261
60.794
60.1242
60.1442
60.1219
60.773
60.228
59.9602
59.8919
59.8270
59.7722
59.6926
59.6228
59.5919
59.5942
59.6081
59.6414
59.7237
59.8205
59.8919
59.9204
59.9271
59.9148
59.8737
59.8242
59.7885
59.7498
59.7037
59.6590
59.6503
59.6793
59.7211
59.7821
59.8722
59.9759
60.693
60.1533
60.1921
60.1969
60.1954
60.1826
60.1585
60.1276
60.1052
60.678
60.198
60.59
60.247
60.556
60.893
60.1693
60.2732
60.3621
60.4075
60.4214
60.4169
60.3716
60.3029
60.2469
60.1845
60.1148
60.305
59.9826
59.9701
59.9683
59.9751
60.119
60.665
60.1185
60.1569
60.1569
60.1210
60.658
60.31
59.9363
59.8639
59.7948
59.7282
59.6400
59.5777
59.5533
59.5535
59.5695
59.6162
59.7110
59.8057
59.8669
59.8891
59.8967
59.8841
59.8407
59.8009
59.7667
59.7285
59.6807
59.6428
59.6507
59.6769
59.7185
59.7784
59.8726
59.9666
60.584
60.1275
60.1562
60.1605
60.1597
60.1452
60.1242
60.952
60.760
60.333
59.9952
59.9918
60.251
60.612
60.1075
60.1980
60.2997
60.3776
60.4105
60.4193
60.4033
60.3469
60.2789
60.2188
60.1514
60.749
59.9967
59.9592
59.9466
59.9479
59.9629
60.111
60.730
60.1279
60.1626
60.1587
60.1210
60.746
60.185
59.9553
59.8868
59.8223
59.7486
59.6610
59.6096
59.5943
59.5989
59.6168
59.6826
59.7751
59.8632
59.9070
59.9186
59.9183
59.8899
59.8431
59.8027
59.7695
59.7319
59.6785
59.6579
59.6775
59.7139
59.7662
59.8391
59.9416
60.444
60.1353
60.1937
60.2096
60.2077
60.1992
60.1759
60.1409
60.1091
60.793
60.287
59.9945
60.6
60.345
60.703
60.1368
60.2391
60.3386
60.4005
60.4265
60.4264
60.3981
60.3332
60.2697
60.2117
60.1456
60.652
60.12
59.9751
59.9673
59.9701
59.9943
60.474
60.981
60.1382
60.1515
60.1265
60.792
60.189
59.9526
59.8841
59.8181
59.7645
59.6851
59.6133
59.5793
59.5772
59.5892
59.6183
59.6992
59.7973
59.8776
59.9118
59.9230
59.9170
59.8784
59.8283
59.7899
59.7524
59.7065
59.6547
59.6448
59.6676
59.7056
59.7585
59.8439
59.9408
60.379
60.1207
60.1646
60.1748
60.1763
60.1637
60.1476
60.1226
60.1020
60.723
60.265
60.58
60.242
60.546
60.898
60.1626
60.2620
60.3508
60.3957
60.4099
60.4000
60.3549
60.2839
60.2209
60.1590
60.919
60.84
59.9581
59.9455
59.9419
59.9525
59.9895
60.466
60.984
60.1421
60.1487
60.1155
60.656
60.52
59.9397
59.8664
59.7983
59.7321
59.6434
59.5770
59.5485
59.5490
59.5573
59.6012
59.6897
59.7884
59.8521
59.8753
59.8809
59.8713
59.8267
59.7851
59.7536
59.7182
59.6701
59.6323
59.6375
59.6682
59.7178
59.7801
59.8766
59.9756
60.700
60.1394
60.1689
60.1699
60.1618
60.1445
60.1188
60.876
60.679
60.250
59.9881
59.9839
60.170
60.582
60.1113
60.2061
60.3126
60.3963
60.4317
60.4387
60.4236
60.3669
60.2962
60.2332
60.1666
60.904
60.116
59.9720
59.9622
59.9630
59.9791
60.224
60.775
60.1281
60.1595
60.1495
60.1082
60.569
59.9995
59.9328
59.8697
59.8110
59.7475
59.6687
59.6149
59.6048
59.6147
59.6344
59.6940
59.7869
59.8738
59.9164
59.9279
59.9251
59.8910
59.8384
59.8001
59.7633
59.7229
59.6718
59.6475
59.6623
59.6985
59.7474
59.8208
59.9241
60.256
60.1177
60.1785
60.1988
60.2013
60.1919
60.1752
60.1493
60.1194
60.923
60.425
60.92
60.177
60.491
60.821
60.1409
60.2366
60.3336
60.4029
60.4250
60.4296
60.4042
60.3416
60.2779
60.2173
60.1507
60.712
60.62
59.9796
59.9713
59.9755
59.9982
60.507
60.1037
60.1515
60.1704
60.1510
60.1032
60.437
59.9748
59.9071
59.8342
59.7719
59.6950
59.6196
59.5773
59.5745
59.5864
59.6180
59.6969
59.7973
59.8800
59.9166
59.9287
59.9245
59.8902
59.8399
59.8069
59.7698
59.7248
59.6693
59.6571
59.6783
59.7118
59.7655
59.8457
59.9431
60.383
60.1178
60.1627
60.1716
60.1733
60.1656
60.1458
60.1175
60.956
60.660
60.181
60.29
60.236
60.594
60.986
60.1747
60.2745
60.3683
60.4169
60.4307
60.4238
60.3831
60.3124
60.2478
60.1833
60.1141
60.281
59.9719
59.9511
59.9477
59.9592
59.9938
60.489
60.1004
60.1477
60.1581
60.1322
60.850
60.284
59.9670
59.9001
59.8351
59.7753
59.6896
59.6252
59.5982
59.5993
59.6102
59.6478
59.7364
59.8311
59.9013
59.9283
59.9327
59.9179
59.8729
59.8296
59.7996
59.7650
59.7188
59.6786
59.6841
59.7146
59.7573
59.8207
59.9179
60.208
60.1229
60.1988
60.2324
60.2361
60.2343
60.2145
60.1893
60.1591
60.1367
60.944
60.471
60.417
60.619
60.961
60.1402
60.2270
60.3321
60.4162
60.4567
60.4682
60.4596
60.4070
60.3447
60.2893
60.2243
60.1472
60.667
60.217
60.83
60.73
60.174
60.591
60.1098
60.1551
60.1855
60.1761
60.1345
60.848
60.242
59.9602
59.8901
59.8287
59.7609
59.6766
59.6221
59.6066
59.6177
59.6354
59.6999
59.7957
59.8850
59.9361
59.9564
59.9602
59.9367
59.8900
59.8491
59.8122
59.7725
59.7172
59.6872
59.6990
59.7283
59.7743
59.8442
59.9428
60.408
60.1333
60.1952
60.2140
60.2176
60.2122
60.1951
60.1713
60.1416
60.1176
60.667
60.329
60.399
60.707
60.1042
60.1611
60.2597
60.3576
60.4244
60.4455
60.4451
60.4148
60.3505
60.2831
60.2213
60.1509
60.663
59.9983
59.9744
59.9664
59.9738
60.29
60.583
60.1162
60.1663
60.1893
60.1708
60.1268
60.677
60.14
59.9312
59.8577
59.7975
59.7107
59.6278
59.5791
59.5696
59.5750
59.6019
59.6799
59.7777
59.8545
59.8927
59.9052
59.8994
59.8612
59.8140
59.7792
59.7400
59.6967
59.6447
59.6357
59.6612
59.6999
59.7591
59.8465
59.9464
60.422
60.1258
60.1693
60.1769
60.1712
60.1566
60.1318
60.1028
60.769
60.465
59.9974
59.9802
60.34
60.398
60.840
60.1593
60.2653
60.3658
60.4220
60.4406
60.4410
60.3998
60.3334
60.2761
60.2125
60.1416
60.581
60.50
59.9848
59.9801
59.9890
60.239
60.796
60.1308
60.1731
60.1819
60.1533
60.1069
60.517
59.9899
59.9245
59.8589
59.8009
59.7180
59.6533
59.6282
59.6300
59.6485
59.6918
59.7777
59.8696
59.9318
59.9537
59.9595
59.9409
59.8932
59.8444
59.8072
59.7719
59.7200
59.6789
59.6811
59.7077
59.7472
59.8123
59.9065
60.108
60.1078
60.1776
60.2064
60.2076
60.2051
60.1902
60.1653
60.1320
60.1108
60.646
60.220
60.114
60.335
60.638
60.1032
60.1880
60.2885
60.3655
60.3997
60.4068
60.3942
60.3415
60.2720
60.2117
60.1480
60.776
60.1
59.9595
59.9511
59.9508
59.9645
60.96
60.673
60.1198
60.1534
60.1479
60.1065
60.546
59.9899
59.9200
59.8443
59.7768
59.7035
59.6187
59.5564
59.5395
59.5487
59.5679
59.6336
59.7310
59.8248
59.8801
59.8950
59.8967
59.8730
59.8240
59.7836
59.7486
59.7078
59.6512
59.6220
59.6334
59.6640
59.7066
59.7777
59.8761
59.9715
60.631
60.1229
60.1390
60.1421
60.1360
60.1183
60.941
60.656
60.422
59.9936
59.9596
59.9695
60.30
60.382
60.949
60.1913
60.2962
60.3640
60.3904
60.3930
60.3659
60.3006
60.2327
60.1672
60.978
60.133
59.9404
59.9054
59.8939
59.8930
59.9115
59.9617
60.122
60.625
60.901
60.762
60.343
59.9822
59.9197
59.8537
59.7829
59.7223
59.6447
59.5620
59.5164
59.5095
59.5138
59.5373
59.6075
59.7026
59.7840
59.8226
59.8334
59.8335
59.7969
59.7459
59.7112
59.6776
59.6359
59.5850
59.5701
59.5919
59.6305
59.6855
59.7699
59.8736
59.9747
60.673
60.1195
60.1320
60.1356
60.1264
60.1096
60.821
60.531
60.243
59.9731
59.9467
59.9602
59.9924
60.305
60.1006
60.2058
60.3055
60.3652
60.3883
60.3903
60.3568
60.2936
60.2340
60.1761
60.1135
60.353
59.9791
59.9591
59.9523
59.9600
59.9844
60.397
60.903
60.1351
60.1449
60.1156
60.662
60.64
59.9415
59.8705
59.8045
59.7435
59.6622
59.5917
59.5603
59.5623
59.5772
59.6179
59.7073
59.8074
59.8821
59.9128
59.9210
59.9125
59.8703
59.8211
59.7816
59.7408
59.6860
59.6317
59.6244
59.6443
59.6802
59.7351
59.8259
59.9276
60.257
60.1025
60.1429
60.1521
60.1510
60.1410
60.1187
60.893
60.652
60.271
59.9823
59.9670
59.9920
60.266
60.633
60.1470
60.2482
60.3376
60.3785
60.3869
60.3770
60.3262
60.2508
60.1864
60.1175
60.435
59.9594
59.9103
59.8952
59.8941
59.9143
59.9545
60.167
60.736
60.1148
60.1195
60.857
60.383
59.9777
59.9118
59.8396
59.7716
59.7048
59.6132
59.5454
59.5192
59.5223
59.5332
59.5820
59.6745
59.7698
59.8332
59.8585
59.8674
59.8524
59.8076
59.7682
59.7355
59.6950
59.6448
59.6096
59.6149
59.6448
59.6910
59.7566
59.8525
59.9520
60.463
60.1138
60.1393
60.1400
60.1281
60.1124
60.852
60.512
60.298
59.9847
59.9477
59.9471
59.9824
60.230
60.746
60.1731
60.2828
60.3647
60.3972
60.4079
60.3935
60.3373
60.2716
60.2098
60.1436
60.678
59.9930
59.9579
59.9450
59.9441
59.9597
60.75
60.610
60.1085
60.1411
60.1338
60.926
60.412
59.9816
59.9172
59.8466
59.7887
59.7161
59.6368
59.5888
59.5829
59.5971
59.6210
59.6894
59.7862
59.8742
59.9213
59.9373
59.9348
59.9026
59.8496
59.8085
59.7705
59.7298
59.6781
59.6600
59.6819
59.7223
59.7754
59.8573
59.9646
60.642
60.1605
60.2170
60.2371
60.2376
60.2307
60.2134
60.1829
60.1542
60.1270
60.807
60.539
60.642
60.966
60.1335
60.2008
60.3037
60.4017
60.4642
60.4877
60.4871
60.4546
60.3815
60.3147
60.2522
60.1846
60.1052
60.435
60.210
60.178
60.270
60.585
60.1143
60.1679
60.2119
60.2244
60.1973
60.1501
60.886
60.190
59.9423
59.8663
59.8002
59.7134
59.6371
59.5979
59.5959
59.6115
59.6505
59.7377
59.8417
59.9224
59.9580
59.9693
59.9614
59.9223
59.8737
59.8358
59.7991
59.7540
59.7091
59.7034
59.7278
59.7661
59.8221
59.9119
60.120
60.1075
60.1877
60.2240
60.2301
60.2255
60.2073
60.1856
60.1514
60.1286
60.928
60.443
60.319
60.611
60.945
60.1360
60.2204
60.3283
60.4154
60.4581
60.4692
60.4577
60.4055
60.3286
60.2675
60.2021
60.1290
60.420
59.9930
59.9778
59.9753
59.9861
60.230
60.783
60.1312
60.1733
60.1738
60.1399
60.911
60.312
59.9665
59.8960
59.8333
59.7704
