=~=~=~=~=~=~=~=~=~=~=~= PuTTY log 2025.04.24 08:55:00 =~=~=~=~=~=~=~=~=~=~=~=




Speed (Hz)
59.8804
59.8871
59.9667
60.977
60.2366
60.3707
60.4740
60.5378
60.5603
60.5625
60.5465
60.5138
60.4708
60.4465
60.4065
60.3670
60.3470
60.3402
60.3224
60.3234
60.3867
60.4781
60.5349
60.5533
60.5645
60.5481
60.4797
60.3934
60.3231
60.2510
60.1678
60.998
60.836
60.783
60.682
60.698
60.1157
60.1764
60.2353
60.2801
60.2941
60.2816
60.2499
60.2101
60.1581
60.968
60.599
60.139
59.9623
59.9417
59.9449
59.9372
59.9264
59.9755
60.698
60.1536
60.1993
60.2323
60.2432
60.2035
60.1278
60.649
60.9
59.9365
59.8640
59.8470
59.8574
59.8593
59.8646
59.9069
59.9717
60.378
60.1027
60.1367
60.1370
60.1129
60.800
60.342
59.9829
59.9342
59.9047
59.8589
59.8273
59.8202
59.8179
59.8100
59.8354
59.9184
60.144
60.747
60.1062
60.1283
60.1126
60.483
59.9833
59.9288
59.8727
59.8035
59.7700
59.7754
59.7882
59.7938
59.8184
59.8799
59.9491
60.182
60.647
60.839
60.755
60.541
60.201
59.9739
59.9242
59.8990
59.8532
59.8141
59.8042
59.8131
59.8093
59.8235
59.8942
59.9946
60.759
60.1199
60.1528
60.1606
60.1097
60.392
59.9869
59.9272
59.8581
59.8034
59.8034
59.8118
59.8094
59.8211
59.8772
59.9493
60.210
60.820
60.1102
60.1027
60.749
60.367
59.9895
59.9373
59.9018
59.8674
59.8281
59.8029
59.8014
59.7987
59.7919
59.8359
59.9344
60.285
60.760
60.1039
60.1189
60.868
60.182
59.9578
59.9033
59.8488
59.7826
59.7640
59.7748
59.7831
59.7926
59.8312
59.8992
59.9699
60.312
60.710
60.761
60.631
60.374
60.34
59.9533
59.9098
59.8833
59.8380
59.8095
59.8105
59.8161
59.8072
59.8319
59.9189
60.189
60.832
60.1202
60.1501
60.1421
60.811
60.141
59.9601
59.8987
59.8260
59.7869
59.7893
59.7967
59.7982
59.8234
59.8861
59.9550
60.269
60.812
60.1010
60.861
60.597
60.160
59.9679
59.9138
59.8861
59.8446
59.8053
59.7864
59.7879
59.7788
59.7817
59.8410
59.9399
60.174
60.601
60.882
60.964
60.485
59.9758
59.9217
59.8684
59.8094
59.7542
59.7457
59.7637
59.7709
59.7855
59.8312
59.9037
59.9734
60.329
60.627
60.593
60.407
60.122
59.9736
59.9221
59.8855
59.8540
59.8092
59.7888
59.7948
59.7964
59.7880
59.8307
59.9238
60.215
60.806
60.1181
60.1412
60.1160
60.434
59.9813
59.9276
59.8685
59.7973
59.7731
59.7872
59.7909
59.7930
59.8248
59.8904
59.9594
60.274
60.731
60.822
60.636
60.339
59.9953
59.9511
59.9000
59.8732
59.8304
59.7941
59.7825
59.7874
59.7788
59.7981
59.8722
59.9769
60.491
60.864
60.1100
60.1026
60.426
59.9689
59.9143
59.8574
59.7934
59.7484
59.7515
59.7654
59.7713
59.7914
59.8470
59.9187
59.9876
60.406
60.627
60.575
60.364
60.82
59.9663
59.9140
59.8814
59.8478
59.8055
59.7949
59.8100
59.8114
59.8127
59.8699
59.9704
60.557
60.1049
60.1393
60.1532
60.1148
60.394
59.9864
59.9295
59.8657
59.8040
59.7935
59.8015
59.8024
59.8114
59.8573
59.9240
59.9940
60.612
60.968
60.967
60.751
60.423
59.9999
59.9481
59.9049
59.8771
59.8349
59.8076
59.8023
59.8030
59.7969
59.8269
59.9125
60.116
60.690
60.995
60.1220
60.1042
60.383
59.9708
59.9144
59.8560
59.7879
59.7570
59.7690
59.7832
59.7900
59.8189
59.8850
59.9590
60.250
60.708
60.852
60.715
60.485
60.127
59.9667
59.9185
59.8948
59.8548
59.8218
59.8168
59.8306
59.8244
59.8379
59.9104
60.140
60.929
60.1352
60.1646
60.1678
60.1101
60.368
59.9807
59.9216
59.8565
59.8086
59.8154
59.8263
59.8265
59.8390
59.8960
59.9642
60.308
60.906
60.1168
60.1096
60.811
60.438
59.9988
59.9464
59.9150
59.8827
59.8450
59.8189
59.8232
59.8225
59.8185
59.8670
59.9635
60.524
60.1005
60.1249
60.1386
60.1052
60.310
59.9697
59.9128
59.8518
59.7874
59.7662
59.7781
59.7898
59.8004
59.8427
59.9133
59.9839
60.494
60.903
60.961
60.836
60.549
60.110
59.9599
59.9143
59.8838
59.8358
59.8095
59.8161
59.8260
59.8235
59.8521
59.9411
60.439
60.1132
60.1505
60.1818
60.1690
60.1045
60.406
59.9836
59.9230
59.8472
59.8107
59.8148
59.8233
59.8220
59.8472
59.9145
59.9859
60.548
60.1099
60.1265
60.1124
60.829
60.445
59.9939
59.9377
59.9082
59.8640
59.8251
59.8079
59.8087
59.8044
59.8106
59.8813
59.9897
60.689
60.1120
60.1355
60.1424
60.962
60.251
59.9712
59.9140
59.8476
59.7885
59.7795
59.7931
59.8020
59.8143
59.8699
59.9457
60.182
60.814
60.1149
60.1182
60.1008
60.715
60.304
59.9789
59.9421
59.9042
59.8592
59.8410
59.8514
59.8523
59.8478
59.8988
59.9963
60.922
60.1479
60.1865
60.2066
60.1763
60.1048
60.434
59.9854
59.9264
59.8551
59.8370
59.8450
59.8498
59.8526
59.8876
59.9539
60.186
60.867
60.1290
60.1318
60.1159
60.853
60.449
59.9947
59.9445
59.9148
59.8706
59.8365
59.8263
59.8253
59.8159
59.8385
59.9209
60.244
60.882
60.1245
60.1521
60.1417
60.835
60.142
59.9639
59.9083
59.8404
59.7976
59.7996
59.8125
59.8166
59.8397
59.9010
59.9758
60.434
60.979
60.1149
60.1051
60.871
60.557
60.83
59.9563
59.9289
59.8839
59.8437
59.8346
59.8444
59.8387
59.8461
59.9118
60.130
60.997
60.1477
60.1843
60.1971
60.1510
60.782
60.216
59.9637
59.8986
59.8412
59.8346
59.8460
59.8420
59.8515
59.9042
59.9728
60.417
60.1022
60.1378
60.1318
60.1096
60.755
60.289
59.9760
59.9392
59.9056
59.8623
59.8333
59.8321
59.8328
59.8229
59.8645
59.9626
60.611
60.1164
60.1480
60.1713
60.1496
60.801
60.253
59.9699
59.9142
59.8447
59.8156
59.8237
59.8322
59.8384
59.8726
59.9435
60.156
60.833
60.1309
60.1450
60.1355
60.1144
60.786
60.309
59.9837
59.9564
59.9110
59.8778
59.8812
59.8857
59.8758
59.8999
59.9856
60.872
60.1591
60.1998
60.2324
60.2244
60.1613
60.938
60.404
59.9786
59.9097
59.8657
59.8684
59.8765
59.8752
59.8971
59.9554
60.242
60.955
60.1558
60.1774
60.1651
60.1383
60.1008
60.539
59.9988
59.9671
59.9254
59.8833
59.8615
59.8622
59.8545
59.8558
59.9182
60.198
60.1035
60.1471
60.1714
60.1835
60.1406
60.716
60.173
59.9592
59.8954
59.8362
59.8230
59.8326
59.8376
59.8478
59.8992
59.9734
60.452
60.1070
60.1389
60.1388
60.1238
60.956
60.547
60.25
59.9638
59.9296
59.8867
59.8662
59.8763
59.8790
59.8743
59.9230
60.224
60.1199
60.1759
60.2134
60.2368
60.2093
60.1361
60.763
60.194
59.9572
59.8853
59.8641
59.8719
59.8737
59.8774
59.9135
59.9817
60.513
60.1202
60.1661
60.1712
60.1521
60.1227
60.783
60.282
59.9815
59.9538
59.9085
59.8730
59.8674
59.8696
59.8625
59.8852
59.9640
60.691
60.1410
60.1752
60.2022
60.1923
60.1332
60.646
60.120
59.9538
59.8819
59.8384
59.8425
59.8518
59.8540
59.8805
59.9433
60.177
60.876
60.1452
60.1688
60.1622
60.1430
60.1106
60.681
60.148
59.9874
59.9465
59.9058
59.8961
59.9056
59.9000
59.9067
59.9760
60.784
60.1651
60.2115
60.2474
60.2584
60.2125
60.1432
60.874
60.274
59.9597
59.9014
59.8927
59.9016
59.8987
59.9079
59.9602
60.284
60.1006
60.1663
60.1962
60.1943
60.1696
60.1320
60.886
60.320
59.9919
59.9578
59.9134
59.8864
59.8861
59.8810
59.8744
59.9189
60.101
60.1054
60.1586
60.1888
60.2096
60.1841
60.1164
60.593
60.56
59.9484
59.8779
59.8538
59.8597
59.8648
59.8690
59.9048
59.9728
60.456
60.1096
60.1547
60.1648
60.1526
60.1267
60.870
60.375
59.9891
59.9595
59.9158
59.8890
59.8922
59.8996
59.8914
59.9162
60.16
60.1012
60.1715
60.2166
60.2486
60.2405
60.1742
60.1058
60.473
59.9860
59.9115
59.8705
59.8745
59.8801
59.8775
59.8987
59.9629
60.351
60.1027
60.1566
60.1741
60.1600
60.1308
60.893
60.443
59.9881
59.9589
59.9142
59.8750
59.8549
59.8562
59.8471
59.8514
59.9160
60.169
60.1011
60.1398
60.1687
60.1757
60.1283
60.559
60.16
59.9400
59.8770
59.8195
59.8113
59.8216
59.8284
59.8403
59.8899
59.9618
60.297
60.897
60.1217
60.1190
60.1027
60.755
60.358
59.9863
59.9507
59.9185
59.8719
59.8514
59.8603
59.8631
59.8565
59.9038
59.9974
60.893
60.1435
60.1821
60.2078
60.1802
60.1094
60.509
59.9957
59.9334
59.8619
59.8405
59.8497
59.8522
59.8578
59.8957
59.9639
60.298
60.951
60.1367
60.1411
60.1226
60.945
60.536
60.17
59.9526
59.9264
59.8851
59.8516
59.8444
59.8437
59.8361
59.8579
59.9418
60.446
60.1127
60.1405
60.1650
60.1584
60.962
60.306
59.9760
59.9177
59.8478
59.7982
59.8020
59.8143
59.8170
59.8373
59.8969
59.9677
60.365
60.860
60.1078
60.1013
60.824
60.535
60.110
59.9613
59.9354
59.8970
59.8571
59.8485
59.8568
59.8508
59.8526
59.9194
60.211
60.1060
60.1538
60.1856
60.1979
60.1510
60.772
60.225
59.9605
59.8935
59.8344
59.8253
59.8347
59.8346
59.8433
59.8904
59.9607
60.304
60.959
60.1322
60.1332
60.1093
60.790
60.378
59.9840
59.9430
59.9060
59.8627
59.8343
59.8305
59.8294
59.8221
59.8628
59.9567
60.546
60.1080
60.1405
60.1564
60.1303
60.637
60.55
59.9487
59.8952
59.8253
59.8034
59.8116
59.8211
59.8285
59.8613
59.9294
60.2
60.666
60.1071
60.1157
60.1051
60.801
60.405
59.9918
59.9444
59.9155
59.8701
59.8394
59.8444
59.8550
59.8500
59.8737
59.9573
60.607
60.1323
60.1751
60.2048
60.1974
60.1353
60.624
60.66
59.9430
59.8742
59.8330
59.8369
59.8444
59.8465
59.8700
59.9290
60.8
60.731
60.1333
60.1576
60.1443
60.1165
60.769
60.267
59.9700
59.9395
59.8982
59.8593
59.8390
59.8399
59.8363
59.8411
59.9066
60.91
60.945
60.1406
60.1669
60.1790
60.1346
60.665
60.90
59.9530
59.8930
59.8338
59.8198
59.8335
59.8390
59.8510
59.9012
59.9719
60.453
60.1044
60.1350
60.1349
60.1179
60.897
60.492
59.9960
59.9573
59.9262
59.8853
59.8639
59.8765
59.8815
59.8764
59.9233
60.218
60.1182
60.1764
60.2115
60.2338
60.2059
60.1368
60.764
60.194
59.9566
59.8877
59.8645
59.8717
59.8755
59.8781
59.9142
59.9808
60.502
60.1218
60.1675
60.1741
60.1585
60.1273
60.837
60.300
59.9780
59.9457
59.9008
59.8679
59.8535
59.8534
59.8447
59.8623
59.9455
60.499
60.1186
60.1535
60.1784
60.1734
60.1154
60.504
59.9987
59.9419
59.8786
59.8353
59.8380
59.8499
59.8565
59.8763
59.9369
60.100
60.836
60.1374
60.1577
60.1507
60.1323
60.1007
60.562
60.31
59.9760
59.9357
59.8966
59.8899
59.9011
59.9013
59.9067
59.9728
60.677
60.1496
60.1980
60.2306
60.2404
60.1934
60.1219
60.670
60.78
59.9444
59.8875
59.8821
59.8928
59.8934
59.9061
59.9575
60.278
60.937
60.1601
60.1908
60.1823
60.1578
60.1225
60.776
60.235
59.9848
59.9529
59.9113
59.8876
59.8896
59.8888
59.8816
59.9213
60.106
60.1048
60.1522
60.1770
60.1954
60.1667
60.1037
60.471
59.9946
59.9394
59.8730
59.8483
59.8570
59.8707
59.8778
59.9114
59.9755
60.442
60.1077
60.1513
60.1586
60.1483
60.1228
60.858
60.408
59.9957
59.9681
59.9235
59.8921
59.8948
59.9001
59.8916
59.9138
59.9946
60.948
60.1650
60.2082
60.2408
60.2338
60.1747
60.1068
60.539
59.9944
59.9273
59.8868
59.8868
59.8911
59.8874
59.9056
59.9632
60.322
60.1039
60.1593
60.1798
60.1697
60.1450
60.1097
60.662
60.150
59.9890
59.9466
59.9054
59.8850
59.8899
59.8853
59.8886
59.9510
60.545
60.1365
60.1793
60.2069
60.2167
60.1732
60.1025
60.513
59.9910
59.9292
59.8712
59.8600
59.8731
59.8772
59.8859
59.9320
60.8
60.706
60.1292
60.1634
60.1653
60.1510
60.1242
60.874
60.368
60.51
59.9717
59.9312
59.9127
59.9206
59.9213
59.9133
59.9587
60.551
60.1498
60.2051
60.2445
60.2655
60.2375
60.1649
60.1032
60.482
59.9885
59.9175
59.8964
59.9037
59.9059
59.9063
59.9445
60.93
60.763
60.1430
60.1860
60.1926
60.1719
60.1413
60.1040
60.524
60.60
59.9714
59.9293
59.8922
59.8776
59.8757
59.8646
59.8873
59.9712
60.705
60.1373
60.1724
60.1969
60.1897
60.1287
60.648
60.111
59.9532
59.8826
59.8439
59.8506
59.8589
59.8620
59.8814
59.9416
60.133
60.796
60.1279
60.1487
60.1443
60.1243
60.954
60.517
60.12
59.9726
59.9286
59.8897
59.8797
59.8920
59.8852
59.8950
59.9637
60.646
60.1487
60.2010
60.2367
60.2443
60.1975
60.1260
60.719
60.85
59.9408
59.8764
59.8702
59.8755
59.8722
59.8810
59.9308
59.9996
60.675
60.1312
60.1643
60.1612
60.1412
60.1059
60.634
60.104
59.9759
59.9412
59.8966
59.8698
59.8650
59.8618
59.8561
59.9008
59.9992
60.963
60.1492
60.1828
60.2003
60.1730
60.1040
60.462
59.9927
59.9375
59.8699
59.8481
59.8583
59.8644
59.8695
59.9049
59.9734
60.433
60.1082
60.1524
60.1621
60.1513
60.1268
60.897
60.413
59.9991
59.9705
59.9228
59.8915
59.8958
59.9002
59.8934
59.9201
60.88
60.1113
60.1808
60.2208
60.2464
60.2375
60.1746
60.1089
60.565
59.9968
59.9255
59.8904
59.8949
59.9014
59.8964
59.9201
59.9861
60.524
60.1200
60.1736
60.1898
60.1777
60.1504
60.1145
60.656
60.134
59.9860
59.9404
59.9012
59.8820
59.8843
59.8754
59.8805
59.9463
60.489
60.1317
60.1747
60.2051
60.2140
60.1662
60.998
60.480
59.9901
59.9229
59.8673
59.8615
59.8715
59.8766
59.8845
59.9345
60.61
60.752
60.1382
60.1685
60.1672
60.1534
60.1309
60.908
60.396
60.23
59.9638
59.9198
59.9005
59.9083
59.9071
59.9013
59.9522
60.544
60.1465
60.2036
60.2435
60.2711
60.2400
60.1627
60.1069
60.468
59.9805
59.9134
59.8984
59.9085
59.9087
59.9157
59.9610
60.321
60.1047
60.1737
60.2179
60.2251
60.2093
60.1730
60.1266
60.735
60.271
59.9917
59.9468
59.9117
59.9007
59.9018
59.8912
59.9238
60.141
60.1153
60.1800
60.2148
60.2384
60.2251
60.1642
60.994
60.431
59.9855
59.9152
59.8790
59.8860
59.8977
59.9040
59.9340
59.9986
60.700
60.1398
60.1899
60.2050
60.2007
60.1827
60.1502
60.1027
60.525
60.281
59.9858
59.9509
59.9470
59.9567
59.9496
59.9625
60.401
60.1414
60.2193
60.2655
60.3020
60.3063
60.2481
60.1779
60.1217
60.604
59.9911
59.9410
59.9404
59.9512
59.9465
59.9641
60.237
60.938
60.1657
60.2247
60.2470
60.2352
60.2108
60.1746
60.1286
60.729
60.422
60.28
59.9588
59.9353
59.9381
59.9373
59.9377
59.9935
60.945
60.1846
60.2307
60.2547
60.2657
60.2228
60.1518
60.965
60.403
59.9804
59.9191
59.9097
59.9252
59.9350
59.9472
59.9951
60.671
60.1407
60.2010
60.2361
60.2403
60.2256
60.1959
60.1552
60.1035
60.631
60.346
59.9873
59.9657
59.9735
59.9752
59.9660
60.82
60.1051
60.2039
60.2651
60.2997
60.3212
60.2948
60.2226
60.1606
60.1078
60.512
59.9784
59.9558
59.9650
59.9680
59.9698
60.69
60.735
60.1395
60.2073
60.2511
60.2573
60.2378
60.2096
60.1671
60.1171
60.653
60.369
59.9918
59.9568
59.9418
59.9467
59.9356
59.9543
60.389
60.1402
60.2132
60.2440
60.2684
60.2615
60.1991
60.1304
60.720
60.116
59.9408
59.8993
59.9041
59.9189
59.9261
59.9453
60.90
60.837
60.1585
60.2121
60.2345
60.2290
60.2056
60.1690
60.1223
60.672
60.361
59.9917
59.9492
59.9399
59.9524
59.9507
59.9610
60.371
60.1395
60.2239
60.2716
60.3055
60.3115
60.2598
60.1845
60.1257
60.665
60.13
59.9441
59.9450
59.9549
59.9535
59.9640
60.153
60.821
60.1473
60.2079
60.2379
60.2350
60.2113
60.1778
60.1302
60.758
60.432
60.81
59.9674
59.9412
59.9389
59.9405
59.9389
59.9875
60.875
60.1819
60.2314
60.2601
60.2758
60.2429
60.1735
60.1152
60.600
59.9992
59.9317
59.9082
59.9221
59.9297
59.9392
59.9827
60.519
60.1246
60.1917
60.2264
60.2325
60.2219
60.1972
60.1582
60.1078
60.618
60.369
59.9892
59.9622
59.9685
59.9735
59.9677
60.17
60.938
60.1927
60.2559
60.2919
60.3185
60.3014
60.2329
60.1640
60.1066
60.465
59.9758
59.9417
59.9475
59.9539
59.9512
59.9773
60.392
60.1093
60.1796
60.2287
60.2434
60.2247
60.1974
60.1566
60.1074
60.553
60.288
59.9831
59.9432
59.9227
59.9247
59.9161
59.9303
60.31
60.1085
60.1849
60.2213
60.2460
60.2444
60.1864
60.1130
60.543
59.9914
59.9241
59.8737
59.8699
59.8852
59.8893
59.9053
59.9647
60.379
60.1052
60.1637
60.1874
60.1766
60.1563
60.1251
60.858
60.335
60.26
59.9642
59.9193
59.9037
59.9151
59.9153
59.9171
59.9764
60.763
60.1705
60.2199
60.2582
60.2724
60.2282
60.1510
60.916
60.334
59.9715
59.9073
59.8979
59.9088
59.9139
59.9244
59.9717
60.395
60.1122
60.1791
60.2150
60.2146
60.1909
60.1550
60.1079
60.541
60.96
59.9782
59.9307
59.9007
59.8941
59.8977
59.8921
59.9282
60.186
60.1229
60.1853
60.2159
60.2388
60.2184
60.1491
60.829
60.285
59.9709
59.9042
59.8775
59.8879
59.9007
59.9077
59.9402
60.95
60.857
60.1556
60.2034
60.2133
60.2020
60.1749
60.1369
60.859
60.358
60.60
59.9609
59.9280
59.9265
59.9383
59.9342
59.9556
60.358
60.1361
60.2131
60.2548
60.2867
60.2838
60.2229
60.1494
60.904
60.298
59.9596
59.9160
59.9200
59.9300
59.9299
59.9489
60.74
60.786
60.1484
60.2052
60.2253
60.2127
60.1849
60.1490
60.987
60.427
60.95
59.9671
59.9230
59.9011
59.9021
59.8998
59.8993
59.9578
60.589
60.1456
60.1884
60.2146
60.2241
60.1808
60.1094
60.529
59.9938
59.9334
59.8734
59.8616
59.8731
59.8795
59.8909
59.9349
60.73
60.801
60.1415
60.1784
60.1807
60.1662
60.1380
60.981
60.463
60.50
59.9703
59.9243
59.9026
59.9101
59.9091
59.9008
59.9451
60.393
60.1342
60.1895
60.2264
60.2437
60.2167
60.1422
60.786
60.199
59.9595
59.8890
59.8672
59.8798
59.8881
59.8898
59.9260
59.9882
60.608
60.1251
60.1704
60.1812
60.1614
60.1360
60.960
60.492
59.9993
59.9768
59.9336
59.9007
59.8896
59.8903
59.8858
59.9026
59.9865
60.859
60.1520
60.1797
60.2014
60.1955
60.1347
60.689
60.169
59.9598
59.8937
59.8497
59.8580
59.8723
59.8824
59.9052
59.9693
60.436
60.1126
60.1652
60.1876
60.1801
60.1610
60.1266
60.828
60.273
60.10
59.9601
59.9180
59.9097
59.9239
59.9234
59.9306
59.9991
60.1000
60.1854
60.2304
60.2663
60.2774
60.2292
60.1545
60.1003
60.427
59.9762
59.9192
59.9150
59.9303
59.9318
59.9430
59.9919
60.609
60.1263
60.1868
60.2188
60.2129
60.1911
60.1565
60.1112
60.579
60.205
59.9852
59.9423
59.9132
59.9131
59.9115
59.9039
59.9483
60.435
60.1357
60.1865
60.2175
60.2323
60.2043
60.1345
60.775
60.212
59.9638
59.8958
59.8742
59.8875
59.8956
59.9021
59.9368
60.29
60.752
60.1443
60.1847
60.1929
60.1762
60.1502
60.1112
60.626
60.130
59.9879
59.9408
59.9144
59.9177
59.9272
59.9229
59.9512
60.398
60.1405
60.2062
60.2464
60.2726
60.2578
60.1897
60.1206
60.600
59.9982
59.9264
59.8895
59.8989
59.9053
59.9092
59.9358
59.9967
60.655
60.1349
60.1876
60.2045
60.1869
60.1562
60.1154
60.666
60.109
59.9802
59.9417
59.8995
59.8819
59.8855
59.8775
59.8861
59.9522
60.563
60.1360
60.1753
60.2020
60.2065
60.1575
60.870
60.327
59.9749
59.9098
59.8514
59.8456
59.8594
59.8639
59.8773
59.9327
60.90
60.836
60.1406
60.1674
60.1644
60.1468
60.1116
60.689
60.137
59.9803
59.9480
59.9036
59.8900
59.9047
59.9107
59.9093
59.9600
60.543
60.1461
60.2027
60.2391
60.2564
60.2229
60.1472
60.866
60.332
59.9719
59.9039
59.8880
59.8984
59.9038
59.9088
59.9500
60.189
60.878
60.1545
60.1993
60.2018
60.1805
60.1473
60.1045
60.516
60.50
59.9759
59.9296
59.8967
59.8922
59.8976
59.8921
59.9203
60.104
60.1126
60.1770
60.2093
60.2360
60.2171
60.1523
60.828
60.275
59.9712
59.8978
59.8578
59.8645
59.8786
59.8870
59.9140
59.9832
60.588
60.1303
60.1787
60.1934
60.1829
60.1586
60.1195
60.729
60.177
59.9917
59.9459
59.9088
59.9055
59.9180
59.9131
59.9235
60.12
60.1058
60.1843
60.2276
60.2564
60.2608
60.2079
60.1300
60.719
60.105
59.9421
59.8896
59.8941
59.9052
59.9043
