=~=~=~=~=~=~=~=~=~=~=~= PuTTY log 2025.04.16 15:17:26 =~=~=~=~=~=~=~=~=~=~=~=




Speed (Hz)
59.9339
60.1815
60.5275
60.6289
60.5691
60.5011
60.4097
60.2685
60.1880
60.2144
60.2639
60.2610
60.1973
60.1322
60.1109
60.1064
60.1212
60.1303
60.602
59.9881
59.9831
60.358
60.977
60.1071
60.705
60.563
60.854
60.1303
60.1371
60.443
59.9869
60.84
60.650
60.1177
60.1423
60.1224
60.879
60.836
60.1265
60.1521
60.694
59.9932
60.122
60.773
60.1138
60.949
60.437
60.133
59.9982
60.144
60.383
59.9864
59.8936
59.8567
59.8843
59.9193
59.9167
59.8625
59.8228
59.8115
59.8225
59.8249
59.7309
59.6050
59.5663
59.6060
59.6475
59.6772
59.6571
59.6221
59.5884
59.5870
59.6288
59.6201
59.5261
59.4851
59.5445
59.6163
59.6487
59.6169
59.5835
59.5914
59.6251
59.6787
59.7007
59.6446
59.6093
59.6427
59.7170
59.7911
59.8071
59.7842
59.7910
59.8420
59.8960
59.9049
59.8249
59.7899
59.8367
59.9137
59.9843
60.252
60.246
60.103
60.212
60.787
60.1082
60.246
59.9569
59.9989
60.885
60.1291
60.1042
60.584
60.335
60.329
60.593
60.835
60.171
59.9375
59.9238
59.9638
60.69
60.43
59.9526
59.9231
59.9263
59.9475
59.9494
59.8522
59.7503
59.7347
59.7738
59.8164
59.8440
59.8241
59.7904
59.7612
59.7721
59.8156
59.7762
59.6780
59.6592
59.7333
59.7979
59.8142
59.7743
59.7631
59.7828
59.8184
59.8649
59.8672
59.8136
59.7889
59.8302
59.9102
59.9827
59.9820
59.9632
59.9881
60.429
60.908
60.661
59.9863
59.9768
60.334
60.991
60.1686
60.1948
60.1839
60.1677
60.1848
60.2404
60.2366
60.1400
60.1080
60.1744
60.2425
60.2623
60.2216
60.1833
60.1719
60.1847
60.2190
60.2136
60.1302
60.661
60.671
60.1014
60.1241
60.937
60.392
60.115
60.179
60.390
60.87
59.8857
59.8028
59.8157
59.8682
59.9068
59.9158
59.8785
59.8328
59.8143
59.8458
59.8767
59.8006
59.7185
59.7351
59.8129
59.8660
59.8614
59.8278
59.8187
59.8358
59.8708
59.9033
59.8735
59.8166
59.8160
59.8735
59.9582
60.55
59.9855
59.9712
59.9944
60.496
60.891
60.299
59.9650
59.9875
60.585
60.1204
60.1767
60.1830
60.1588
60.1514
60.1932
60.2462
60.1917
60.988
60.1050
60.1848
60.2378
60.2376
60.1946
60.1643
60.1522
60.1685
60.2043
60.1736
60.826
60.386
60.621
60.1016
60.1148
60.776
60.325
60.139
60.320
60.522
59.9857
59.8581
59.8028
59.8356
59.8834
59.9137
59.8940
59.8573
59.8243
59.8197
59.8560
59.8473
59.7454
59.6948
59.7466
59.8252
59.8631
59.8444
59.8189
59.8281
59.8567
59.9054
59.9306
59.8806
59.8425
59.8751
59.9451
60.142
60.290
60.33
60.82
60.601
60.1213
60.1299
60.511
60.180
60.645
60.1282
60.1958
60.2433
60.2433
60.2309
60.2368
60.2854
60.3169
60.2248
60.1582
60.2012
60.2808
60.3222
60.2996
60.2546
60.2420
60.2495
60.2774
60.2959
60.2204
60.1363
60.1173
60.1519
60.1842
60.1684
60.1115
60.762
60.790
60.1008
60.988
59.9965
59.8978
59.8839
59.9239
59.9651
59.9958
59.9721
59.9287
59.8926
59.9078
59.9413
59.8912
59.8007
59.7938
59.8703
59.9333
59.9391
59.8972
59.8815
59.8956
59.9295
59.9759
59.9712
59.9119
59.8908
59.9429
60.216
60.850
60.795
60.607
60.844
60.1350
60.1839
60.1490
60.730
60.705
60.1335
60.2037
60.2681
60.2781
60.2575
60.2382
60.2628
60.3206
60.2893
60.1880
60.1642
60.2359
60.2997
60.3196
60.2772
60.2420
60.2222
60.2387
60.2775
60.2686
60.1675
60.1042
60.1113
60.1537
60.1812
60.1435
60.834
60.602
60.697
60.873
60.407
59.9123
59.8369
59.8478
59.8907
59.9253
59.9223
59.8881
59.8451
59.8283
59.8584
59.8732
59.7896
59.7210
59.7588
59.8358
59.8773
59.8591
59.8190
59.8133
59.8386
59.8823
59.9186
59.8737
59.8140
59.8231
59.8919
59.9751
60.58
59.9827
59.9779
60.133
60.680
60.983
60.367
59.9800
60.76
60.795
60.1450
60.1924
60.1922
60.1744
60.1790
60.2275
60.2753
60.2162
60.1338
60.1556
60.2333
60.2786
60.2663
60.2217
60.1977
60.1855
60.1985
60.2279
60.1824
60.1018
60.683
60.897
60.1274
60.1328
60.823
60.404
60.405
60.593
60.680
59.9877
59.8769
59.8419
59.8780
59.9175
59.9412
59.9205
59.8851
59.8499
59.8461
59.8775
59.8545
59.7552
59.7196
59.7819
59.8503
59.8779
59.8477
59.8298
59.8382
59.8729
59.9149
59.9309
59.8688
59.8363
59.8747
59.9554
60.334
60.395
60.153
60.284
60.806
60.1358
60.1302
60.527
60.338
60.859
60.1513
60.2097
60.2359
60.2243
60.2059
60.2196
60.2790
60.2912
60.2043
60.1577
60.2147
60.2931
60.3260
60.2925
60.2565
60.2394
60.2368
60.2629
60.2729
60.1990
60.1277
60.1190
60.1516
60.1812
60.1612
60.1067
60.736
60.743
60.928
60.745
59.9593
59.8561
59.8536
59.9035
59.9399
59.9506
59.9192
59.8805
59.8562
59.8712
59.9040
59.8394
59.7536
59.7615
59.8429
59.8988
59.8963
59.8571
59.8439
59.8564
59.8894
59.9287
59.9069
59.8458
59.8352
59.8912
59.9637
60.128
59.9982
59.9808
60.71
60.672
60.1124
60.698
60.18
60.40
60.635
60.1292
60.1892
60.1999
60.1840
60.1699
60.1999
60.2531
60.2183
60.1180
60.1071
60.1812
60.2402
60.2478
60.1999
60.1577
60.1392
60.1492
60.1762
60.1539
60.602
60.40
60.202
60.640
60.843
60.457
59.9950
59.9688
59.9768
59.9937
59.9493
59.8165
59.7514
59.7719
59.8098
59.8403
59.8370
59.8014
59.7556
59.7308
59.7607
59.7768
59.6887
59.6213
59.6585
59.7372
59.7803
59.7639
59.7269
59.7265
59.7462
59.7881
59.8301
59.7878
59.7306
59.7425
59.8136
59.8966
59.9322
59.9104
59.8981
59.9326
59.9928
60.160
59.9451
59.8855
59.9097
59.9789
60.451
60.943
60.959
60.758
60.740
60.1186
60.1659
60.1081
60.270
60.448
60.1236
60.1757
60.1752
60.1317
60.1039
60.926
60.1060
60.1394
60.976
60.89
59.9647
59.9810
60.149
60.243
59.9716
59.9316
59.9278
59.9478
59.9596
59.8839
59.7649
59.7258
59.7615
59.8085
59.8395
59.8236
59.7916
59.7553
59.7548
59.7957
59.7900
59.6892
59.6380
59.6958
59.7737
59.8088
59.7760
59.7514
59.7537
59.7804
59.8253
59.8484
59.7980
59.7585
59.7876
59.8581
59.9385
59.9590
59.9390
59.9437
59.9967
60.626
60.703
59.9880
59.9530
59.9978
60.682
60.1371
60.1732
60.1644
60.1440
60.1492
60.1964
60.2176
60.1369
60.798
60.1253
60.2024
60.2383
60.2123
60.1656
60.1434
60.1478
60.1790
60.1928
60.1235
60.410
60.259
60.631
60.1029
60.908
60.300
59.9920
59.9909
60.98
60.56
59.9005
59.7982
59.7791
59.8200
59.8550
59.8726
59.8370
59.7923
59.7720
59.7899
59.8329
59.7876
59.6934
59.6851
59.7590
59.8244
59.8383
59.8010
59.7851
59.7969
59.8242
59.8692
59.8640
59.8055
59.7794
59.8283
59.9068
59.9638
59.9511
59.9341
59.9551
60.79
60.533
60.294
59.9498
59.9427
60.19
60.678
60.1274
60.1459
60.1317
60.1186
60.1400
60.1968
60.1892
60.929
60.598
60.1226
60.1911
60.2137
60.1703
60.1286
60.1110
60.1200
60.1548
60.1562
60.647
59.9990
60.10
60.392
60.742
60.399
59.9889
59.9761
59.9927
60.93
59.9847
59.8598
59.7747
59.7904
59.8418
59.8812
59.8858
59.8552
59.8161
59.7975
59.8253
59.8493
59.7692
59.6849
59.7097
59.7907
59.8428
59.8291
59.7977
59.7995
59.8184
59.8564
59.9026
59.8793
59.8251
59.8255
59.8907
59.9708
60.151
59.9961
59.9923
60.293
60.852
60.1224
60.692
60.71
60.274
60.894
60.1513
60.2076
60.2170
60.1992
60.1920
60.2324
60.2822
60.2256
60.1390
60.1509
60.2337
60.2853
60.2887
60.2505
60.2170
60.2056
60.2250
60.2559
60.2148
60.1238
60.862
60.1133
60.1516
60.1569
60.1030
60.609
60.537
60.667
60.811
60.181
59.8942
59.8448
59.8749
59.9204
59.9516
59.9334
59.9035
59.8719
59.8682
59.9095
59.9032
59.8059
59.7594
59.8209
59.8933
59.9231
59.8910
59.8674
59.8769
59.9059
59.9477
59.9588
59.9019
59.8587
59.8878
59.9630
60.366
60.394
60.150
60.286
60.846
60.1442
60.1447
60.644
60.367
60.846
60.1540
60.2189
60.2479
60.2381
60.2173
60.2249
60.2828
60.3019
60.2122
60.1534
60.1974
60.2713
60.3056
60.2719
60.2274
60.2019
60.1965
60.2251
60.2489
60.1813
60.997
60.896
60.1235
60.1556
60.1403
60.856
60.502
60.500
60.708
60.635
59.9552
59.8532
59.8402
59.8747
59.9095
59.9276
59.9011
59.8589
59.8266
59.8340
59.8714
59.8118
59.7177
59.7150
59.7898
59.8507
59.8649
59.8267
59.8133
59.8285
59.8659
59.9099
59.9011
59.8376
59.8174
59.8728
59.9537
60.114
59.9976
59.9778
59.9937
60.483
60.976
60.623
59.9881
59.9885
60.509
60.1151
60.1750
60.1905
60.1709
60.1540
60.1867
60.2473
60.2335
60.1372
60.1103
60.1774
60.2399
60.2614
60.2211
60.1844
60.1653
60.1701
60.2037
60.1972
60.1077
60.509
60.634
60.898
60.1068
60.671
60.131
59.9902
60.77
60.342
59.9915
59.8647
59.7961
59.8172
59.8694
59.9125
59.9094
59.8737
59.8383
59.8234
59.8516
59.8695
59.7800
59.7080
59.7387
59.8180
59.8704
59.8572
59.8147
59.8109
59.8316
59.8759
59.9133
59.8746
59.8214
59.8366
59.9003
59.9779
60.194
59.9987
59.9888
60.325
60.980
60.1327
60.730
60.189
60.444
60.1124
60.1785
60.2313
60.2366
60.2178
60.2129
60.2550
60.3019
60.2410
60.1579
60.1756
60.2541
60.3000
60.2934
60.2448
60.2154
60.2097
60.2386
60.2742
60.2298
60.1403
60.1075
60.1383
60.1747
60.1827
60.1326
60.907
60.836
60.975
60.1005
60.113
59.8900
59.8425
59.8775
59.9214
59.9570
59.9381
59.8989
59.8628
59.8612
59.8994
59.8813
59.7865
59.7507
59.8092
59.8797
59.9100
59.8716
59.8452
59.8542
59.8759
59.9191
59.9356
59.8831
59.8514
59.8864
59.9560
60.240
60.259
59.9994
60.87
60.566
60.1120
60.1012
60.182
59.9904
60.387
60.1050
60.1728
60.2086
60.2040
60.1892
60.2041
60.2592
60.2716
60.1788
60.1259
60.1750
60.2478
60.2750
60.2442
60.1976
60.1674
60.1664
60.1996
60.2128
60.1303
60.512
60.448
60.791
60.1070
60.847
60.300
60.24
60.55
60.208
60.54
59.8914
59.7978
59.7915
59.8345
59.8687
59.8794
59.8484
59.8130
59.7888
59.8063
59.8358
59.7688
59.6727
59.6651
59.7382
59.7961
59.8084
59.7660
59.7524
59.7684
59.8036
59.8553
59.8448
59.7857
59.7703
59.8238
59.9044
59.9627
59.9496
59.9329
59.9496
60.86
60.583
60.240
59.9527
59.9545
60.223
60.904
60.1507
60.1650
60.1481
60.1269
60.1502
60.2048
60.1820
60.904
60.733
60.1455
60.2087
60.2284
60.1867
60.1548
60.1463
60.1599
60.1960
60.1888
60.955
60.305
60.385
60.779
60.1031
60.621
60.116
59.9882
60.38
60.206
59.9709
59.8480
59.7745
59.7917
59.8398
59.8778
59.8776
59.8448
59.8075
59.7934
59.8280
59.8490
59.7643
59.6914
59.7214
59.8028
59.8477
59.8295
59.7979
59.7953
59.8132
59.8576
59.8998
59.8634
59.8092
59.8110
59.8750
59.9497
59.9926
59.9717
59.9676
60.69
60.628
60.924
60.282
59.9767
60.107
60.799
60.1480
60.2063
60.2114
60.1938
60.1867
60.2264
60.2698
60.2019
60.1174
60.1421
60.2193
60.2618
60.2439
60.1939
60.1665
60.1615
60.1790
60.2082
60.1616
60.781
60.499
60.776
60.1112
60.1117
60.607
60.232
60.148
60.353
60.473
59.9682
59.8466
59.8025
59.8316
59.8721
59.9051
59.8841
59.8467
59.8147
59.8132
59.8447
59.8244
59.7258
59.6881
59.7433
59.8137
59.8411
59.8086
59.7883
59.8002
59.8284
59.8739
59.8941
59.8380
59.8005
59.8299
59.9035
59.9784
59.9806
59.9574
59.9673
60.151
60.673
60.615
59.9806
59.9511
59.9949
60.648
60.1329
60.1641
60.1578
60.1355
60.1462
60.1972
60.2172
60.1289
60.726
60.1221
60.1980
60.2324
60.2008
60.1557
60.1408
60.1428
60.1659
60.1858
60.1116
60.269
60.97
60.492
60.740
60.494
59.9917
59.9610
59.9650
59.9797
59.9766
59.8791
59.7737
59.7597
59.8075
59.8546
59.8855
59.8628
59.8259
59.7962
59.8066
59.8436
59.7929
59.6985
59.6873
59.7599
59.8226
59.8359
59.7895
59.7805
59.7943
59.8272
59.8749
59.8647
59.8037
59.7921
59.8427
59.9167
59.9730
59.9633
59.9507
59.9762
60.273
60.788
60.496
59.9796
59.9767
60.370
60.1056
60.1693
60.1878
60.1669
60.1531
60.1798
60.2395
60.2167
60.1093
60.785
60.1501
60.2169
60.2360
60.1939
60.1561
60.1387
60.1497
60.1906
60.1857
60.977
60.367
60.465
60.823
60.1067
60.714
60.176
59.9988
60.77
60.262
59.9902
59.8612
59.7819
59.7962
59.8484
59.8879
59.8834
59.8426
59.8085
59.7907
59.8214
59.8436
59.7589
59.6844
59.7168
59.8022
59.8519
59.8434
59.8084
59.8127
59.8351
59.8731
59.9169
59.8860
59.8316
59.8332
59.8944
59.9712
60.119
59.9918
59.9850
60.172
60.750
60.1098
60.489
59.9923
60.172
60.841
60.1524
60.2076
60.2148
60.1997
60.1892
60.2396
60.2926
60.2335
60.1473
60.1606
60.2313
60.2850
60.2864
60.2374
60.2063
60.2008
60.2171
60.2440
60.2010
60.1047
60.638
60.891
60.1293
60.1382
60.842
60.390
60.354
60.529
60.673
59.9930
59.8764
59.8397
59.8785
59.9217
59.9532
59.9356
59.9000
59.8535
59.8436
59.8872
59.8734
59.7694
59.7227
59.7823
59.8585
59.8915
59.8576
59.8296
59.8326
59.8647
59.9078
59.9298
59.8752
59.8347
59.8649
59.9371
60.87
60.133
59.9908
60.4
60.582
60.1190
60.1187
60.337
60.43
60.528
60.1190
60.1806
60.2119
60.1981
60.1750
60.1805
60.2351
60.2614
60.1763
60.1219
60.1735
60.2472
60.2838
60.2635
60.2193
60.2006
60.2030
60.2342
60.2510
60.1692
60.888
60.784
60.1139
60.1539
60.1406
60.848
60.507
60.542
60.748
60.629
59.9455
59.8494
59.8425
59.8868
59.9225
59.9407
59.9147
59.8716
59.8482
59.8636
59.9016
59.8460
59.7596
59.7631
59.8455
59.9081
59.9111
59.8722
59.8666
59.8831
59.9201
59.9639
59.9516
59.8884
59.8731
59.9261
60.5
60.645
60.515
60.338
60.630
60.1229
60.1725
60.1305
60.631
60.762
60.1450
60.2144
60.2785
60.2879
60.2664
60.2528
60.2888
60.3483
60.3160
60.2236
60.2140
60.2918
60.3515
60.3542
60.3057
60.2720
60.2558
60.2703
60.3006
60.2682
60.1740
60.1308
60.1569
60.1934
60.2186
60.1762
60.1277
60.1127
60.1288
60.1475
60.952
59.9745
59.9102
59.9315
59.9750
60.74
59.9964
59.9573
59.9180
59.9069
59.9412
59.9492
59.8543
59.7854
59.8271
59.9032
59.9439
59.9177
59.8836
59.8827
59.9057
59.9523
59.9950
59.9531
59.8959
59.9072
59.9819
60.571
60.856
60.603
60.515
60.901
60.1464
60.1649
60.903
60.407
60.713
60.1321
60.1930
60.2372
60.2313
60.2078
60.2037
60.2523
60.2884
60.2096
60.1383
60.1752
60.2514
60.2877
60.2733
60.2276
60.2021
60.1957
60.2200
60.2407
60.1697
60.756
60.508
60.802
60.1103
60.1030
60.456
59.9985
59.9928
60.144
60.208
59.9202
59.8048
59.7780
59.8181
59.8630
59.8861
59.8575
59.8200
59.7890
59.7906
59.8311
59.7932
59.6957
59.6698
59.7338
59.8067
59.8264
59.7838
59.7599
59.7676
59.7956
59.8398
59.8445
59.7829
59.7497
59.7839
59.8580
59.9272
59.9333
59.9126
59.9340
59.9885
60.439
60.407
59.9642
59.9478
60.18
60.633
60.1346
60.1671
60.1560
60.1323
60.1496
60.2054
60.2119
60.1162
60.707
60.1285
60.2028
60.2331
60.1938
60.1545
60.1394
60.1501
60.1799
60.1859
60.1070
60.366
60.339
60.697
60.977
60.738
60.232
60.42
60.67
60.259
60.168
59.8989
59.7995
59.7932
59.8369
59.8703
59.8810
59.8521
59.8106
59.7856
59.8081
59.8394
59.7717
59.6854
59.7005
59.7772
59.8354
59.8328
59.7954
59.7952
59.8198
59.8567
59.8996
59.8796
59.8188
59.8102
59.8601
59.9337
59.9833
59.9704
59.9574
59.9860
60.438
60.875
60.452
59.9813
59.9901
60.581
60.1228
60.1884
60.2021
60.1865
60.1761
60.2109
60.2664
60.2323
60.1441
60.1376
60.2123
60.2729
60.2858
60.2434
60.2150
60.2048
60.2157
60.2454
60.2176
60.1236
60.679
60.825
60.1161
60.1375
60.944
60.427
60.307
60.479
60.681
60.148
59.8913
59.8339
59.8625
59.9109
59.9470
59.9395
59.9019
59.8672
59.8478
59.8772
59.8828
59.7862
59.7181
59.7646
59.8405
59.8777
59.8589
59.8232
59.8228
59.8533
59.8995
59.9265
59.8702
59.8187
59.8376
59.9059
59.9835
60.115
59.9830
59.9821
60.248
60.819
60.984
60.258
59.9798
60.163
60.893
60.1520
60.1848
60.1787
60.1560
60.1523
60.1992
60.2372
60.1627
60.833
60.1067
60.1866
60.2355
60.2227
60.1772
60.1509
60.1432
60.1617
60.1896
60.1362
60.453
60.113
60.421
60.799
60.775
60.228
59.9814
59.9719
59.9891
59.9962
59.9057
59.7866
59.7554
59.7894
59.8305
59.8617
59.8366
59.7990
59.7651
59.7669
59.8042
59.7844
59.6861
59.6556
59.7252
59.7995
59.8245
59.7927
59.7701
59.7833
59.8164
59.8620
59.8680
59.8078
59.7782
59.8152
59.8921
59.9609
59.9618
59.9373
59.9470
59.9994
60.587
60.521
59.9731
59.9560
60.80
60.781
60.1462
60.1737
60.1622
60.1456
60.1560
60.2160
60.2214
60.1323
60.867
60.1382
60.1987
60.2290
60.1966
60.1579
60.1366
60.1379
60.1631
60.1721
60.988
60.246
60.194
60.599
60.962
60.715
60.164
59.9852
59.9914
60.182
60.84
59.8925
59.7940
59.7936
59.8397
59.8803
59.8910
59.8609
59.8252
59.8022
59.8183
59.8550
59.7882
59.6979
59.7016
59.7791
59.8326
59.8273
59.7892
59.7816
59.8027
59.8392
59.8941
59.8787
59.8189
59.8091
59.8693
59.9469
60.52
59.9886
59.9762
60.69
60.573
60.962
60.512
59.9823
59.9886
60.492
60.1150
60.1740
60.1787
60.1555
60.1407
60.1718
60.2373
60.2091
60.1141
60.1050
60.1794
60.2447
60.2580
60.2177
60.1840
60.1719
60.1772
60.2056
60.1859
60.940
60.383
60.543
60.898
60.1038
60.538
60.48
59.9894
59.9984
60.173
59.9687
59.8463
59.7806
59.7993
59.8419
59.8773
59.8758
59.8448
59.8062
59.7992
59.8335
59.8446
59.7532
59.6851
59.7238
59.8059
59.8480
59.8290
59.7943
59.7884
59.8074
59.8539
59.8922
59.8404
59.7855
59.7922
59.8558
59.9326
59.9657
59.9421
59.9405
59.9848
60.512
60.800
60.123
59.9599
59.9906
60.611
60.1289
60.1767
60.1731
60.1493
60.1525
60.1914
60.2347
60.1706
60.887
60.1092
60.1882
60.2355
60.2272
60.1787
60.1544
60.1531
60.1759
60.2079
60.1610
60.740
60.459
60.823
60.1189
60.1223
60.691
60.309
60.289
60.492
60.526
59.9645
59.8497
59.8138
59.8505
59.8966
59.9241
59.8985
59.8602
59.8215
59.8242
59.8666
59.8419
59.7453
59.7180
59.7836
59.8500
59.8736
59.8437
59.8222
59.8327
59.8685
59.9077
59.9225
59.8630
59.8255
59.8668
59.9378
60.53
60.81
59.9820
59.9903
60.421
60.978
60.910
60.139
59.9900
60.503
60.1221
60.1868
60.2174
60.2079
60.1895
60.2100
60.2688
60.2770
60.1870
60.1398
60.2043
60.2800
60.3114
60.2765
60.2341
60.2153
60.2259
60.2558
60.2681
60.1874
60.1101
60.1046
60.1448
60.1752
60.1521
60.933
60.659
60.790
60.1071
60.968
59.9850
59.8886
59.8899
59.9436
59.9879
59.9977
59.9645
59.9208
59.8887
59.9159
59.9594
59.8860
59.7941
59.8053
59.8861
59.9381
59.9412
59.9032
59.8903
59.9061
59.9472
59.9991
59.9764
59.9088
59.9016
59.9590
60.330
60.844
60.673
60.557
60.874
60.1448
60.1852
60.1322
60.629
60.798
60.1415
60.1982
60.2452
60.2469
60.2284
60.2168
60.2473
60.2942
60.2488
60.1552
60.1480
60.2184
60.2744
60.2830
60.2378
60.2044
60.1909
60.2046
60.2415
60.2169
60.1211
60.741
60.967
60.1270
60.1354
60.800
60.256
60.85
60.158
60.285
59.9709
59.8481
59.7871
59.8095
59.8532
59.8786
59.8655
59.8343
59.7975
59.7865
59.8120
59.8161
59.7202
59.6650
59.7142
59.7852
59.8189
59.7976
59.7629
59.7615
59.7807
59.8244
59.8537
59.8071
59.7551
59.7712
59.8355
59.9124
59.9348
59.9107
59.9034
59.9444
60.67
60.314
59.9585
59.9153
59.9490
60.188
60.858
60.1361
60.1393
60.1195
60.1213
60.1723
60.2121
60.1352
60.566
60.781
60.1524
60.1942
60.1876
60.1406
60.1120
60.1088
60.1303
60.1582
60.1021
60.128
59.9901
60.266
60.618
60.626
60.89
59.9633
59.9617
59.9819
59.9910
59.9042
59.7924
59.7604
59.7986
