=~=~=~=~=~=~=~=~=~=~=~= PuTTY log 2025.04.24 08:47:14 =~=~=~=~=~=~=~=~=~=~=~=




Speed (Hz)
60.1206
60.555
60.870
60.1475
60.1995
60.2710
60.3648
60.4380
60.4927
60.5541
60.6436
60.7228
60.7905
60.8358
60.8461
60.8318
60.8109
60.7815
60.7367
60.6939
60.6723
60.6221
60.5673
60.5451
60.5189
60.4790
60.4567
60.4940
60.5536
60.5931
60.5992
60.6060
60.5959
60.5243
60.4415
60.3790
60.3223
60.2591
60.2024
60.1827
60.1711
60.1489
60.1397
60.1722
60.2007
60.2351
60.2686
60.2725
60.2555
60.2266
60.1830
60.1417
60.1017
60.844
60.584
60.189
59.9863
59.9717
59.9569
59.9355
59.9615
60.369
60.1039
60.1322
60.1533
60.1660
60.1343
60.711
60.221
59.9848
59.9360
59.8903
59.8745
59.8852
59.8847
59.8877
59.9214
59.9638
60.175
60.699
60.932
60.842
60.739
60.612
60.342
60.39
59.9921
59.9839
59.9437
59.9196
59.9181
59.9168
59.8996
59.9184
59.9872
60.693
60.1125
60.1389
60.1692
60.1673
60.1163
60.623
60.317
59.9987
59.9473
59.9224
59.9318
59.9219
59.9133
59.9323
59.9814
60.306
60.829
60.1186
60.1263
60.1151
60.954
60.654
60.288
59.9916
59.9759
59.9509
59.9189
59.9036
59.8930
59.8769
59.8721
59.9309
60.66
60.653
60.921
60.1070
60.1223
60.825
60.232
59.9902
59.9482
59.9031
59.8573
59.8496
59.8564
59.8493
59.8571
59.9011
59.9549
60.119
60.601
60.738
60.673
60.600
60.380
60.127
59.9816
59.9719
59.9534
59.9150
59.9028
59.9084
59.8949
59.8812
59.9180
60.15
60.744
60.1166
60.1413
60.1633
60.1367
60.802
60.334
59.9997
59.9561
59.8955
59.8788
59.8906
59.8857
59.8846
59.9121
59.9632
60.155
60.641
60.883
60.822
60.645
60.351
60.59
59.9636
59.9364
59.9265
59.8906
59.8571
59.8499
59.8457
59.8275
59.8484
59.9248
60.125
60.633
60.866
60.1050
60.951
60.430
59.9864
59.9541
59.9152
59.8624
59.8316
59.8406
59.8556
59.8545
59.8711
59.9271
59.9751
60.277
60.549
60.606
60.466
60.358
60.104
59.9751
59.9505
59.9515
59.9237
59.8987
59.8940
59.9009
59.8906
59.8964
59.9544
60.427
60.1069
60.1399
60.1681
60.1821
60.1340
60.718
60.303
59.9890
59.9369
59.8952
59.8918
59.8948
59.8849
59.8873
59.9298
59.9740
60.281
60.756
60.1002
60.958
60.817
60.542
60.152
59.9814
59.9673
59.9510
59.9232
59.8937
59.8835
59.8743
59.8591
59.8902
59.9668
60.406
60.814
60.1068
60.1276
60.1117
60.493
60.68
59.9694
59.9337
59.8760
59.8562
59.8596
59.8589
59.8604
59.8866
59.9344
59.9895
60.407
60.727
60.760
60.695
60.516
60.266
59.9949
59.9807
59.9662
59.9382
59.9217
59.9225
59.9245
59.9201
59.9320
60.45
60.827
60.1350
60.1626
60.1828
60.1772
60.1224
60.752
60.402
60.36
59.9533
59.9254
59.9299
59.9281
59.9187
59.9335
59.9831
60.318
60.754
60.1154
60.1234
60.1085
60.791
60.484
60.148
59.9828
59.9745
59.9495
59.9144
59.8995
59.8988
59.8875
59.8803
59.9338
60.145
60.803
60.1013
60.1206
60.1324
60.923
60.410
60.31
59.9637
59.9151
59.8712
59.8685
59.8765
59.8796
59.8887
59.9295
59.9803
60.260
60.699
60.953
60.847
60.724
60.491
60.179
59.9806
59.9675
59.9512
59.9160
59.9091
59.9196
59.9169
59.9027
59.9409
60.161
60.897
60.1310
60.1586
60.1766
60.1506
60.938
60.470
60.155
59.9725
59.9237
59.9173
59.9289
59.9247
59.9229
59.9538
60.35
60.546
60.1039
60.1331
60.1292
60.1148
60.893
60.606
60.258
60.73
59.9995
59.9631
59.9305
59.9176
59.9134
59.8962
59.9082
59.9758
60.608
60.992
60.1236
60.1458
60.1415
60.890
60.376
59.9999
59.9651
59.9151
59.8903
59.9001
59.9081
59.9083
59.9187
59.9708
60.250
60.797
60.1133
60.1133
60.1024
60.903
60.632
60.346
60.10
59.9949
59.9646
59.9367
59.9377
59.9382
59.9242
59.9265
59.9830
60.633
60.1325
60.1676
60.1918
60.2076
60.1631
60.1030
60.576
60.149
59.9613
59.9242
59.9312
59.9339
59.9307
59.9363
59.9826
60.302
60.798
60.1297
60.1478
60.1357
60.1131
60.867
60.506
60.147
60.61
59.9843
59.9526
59.9218
59.9160
59.9069
59.8971
59.9308
60.44
60.812
60.1140
60.1309
60.1465
60.1215
60.575
60.189
59.9801
59.9440
59.8907
59.8792
59.8925
59.8916
59.8922
59.9182
59.9745
60.211
60.650
60.913
60.920
60.855
60.760
60.484
60.178
59.9926
59.9794
59.9448
59.9176
59.9201
59.9212
59.9055
59.9258
59.9997
60.802
60.1364
60.1735
60.2012
60.1901
60.1330
60.785
60.477
60.108
59.9576
59.9368
59.9434
59.9465
59.9414
59.9562
60.95
60.537
60.1015
60.1296
60.1360
60.1156
60.946
60.694
60.317
60.44
59.9896
59.9599
59.9295
59.9081
59.9028
59.8858
59.8858
59.9376
60.198
60.773
60.1011
60.1269
60.1418
60.977
60.404
60.70
59.9758
59.9257
59.8806
59.8734
59.8788
59.8744
59.8817
59.9173
59.9755
60.263
60.770
60.1018
60.900
60.796
60.611
60.346
60.87
60.20
59.9814
59.9450
59.9228
59.9319
59.9269
59.9100
59.9426
60.225
60.1024
60.1487
60.1826
60.2055
60.1792
60.1150
60.734
60.388
59.9953
59.9441
59.9285
59.9332
59.9208
59.9113
59.9396
59.9866
60.345
60.891
60.1204
60.1154
60.967
60.787
60.488
60.144
59.9968
59.9860
59.9526
59.9237
59.9065
59.8986
59.8733
59.8774
59.9427
60.303
60.739
60.936
60.1154
60.1105
60.611
60.104
59.9772
59.9421
59.8932
59.8668
59.8782
59.8776
59.8729
59.8796
59.9244
59.9788
60.213
60.587
60.675
60.555
60.410
60.222
59.9963
59.9766
59.9715
59.9460
59.9123
59.9018
59.9046
59.8859
59.8815
59.9405
60.258
60.917
60.1253
60.1570
60.1720
60.1321
60.715
60.392
60.106
59.9616
59.9190
59.9201
59.9199
59.9040
59.9019
59.9374
59.9834
60.349
60.798
60.979
60.978
60.874
60.681
60.350
60.12
59.9832
59.9654
59.9273
59.8988
59.8851
59.8673
59.8512
59.8872
59.9700
60.438
60.869
60.1105
60.1265
60.1022
60.475
60.38
59.9710
59.9268
59.8761
59.8634
59.8702
59.8651
59.8580
59.8863
59.9336
59.9882
60.373
60.671
60.660
60.607
60.537
60.315
60.20
59.9865
59.9778
59.9458
59.9098
59.9023
59.8989
59.8756
59.8990
59.9709
60.561
60.1070
60.1370
60.1693
60.1654
60.1147
60.629
60.279
59.9901
59.9310
59.8974
59.9076
59.9003
59.8897
59.8988
59.9467
59.9942
60.444
60.912
60.1002
60.946
60.765
60.491
60.187
59.9886
59.9798
59.9471
59.9042
59.8915
59.8830
59.8691
59.8619
59.9093
59.9960
60.649
60.916
60.1156
60.1264
60.910
60.378
60.9
59.9628
59.9121
59.8728
59.8682
59.8788
59.8724
59.8736
59.9049
59.9564
60.78
60.541
60.745
60.647
60.562
60.422
60.144
59.9837
59.9668
59.9523
59.9257
59.9130
59.9205
59.9089
59.8929
59.9322
60.98
60.855
60.1294
60.1561
60.1800
60.1580
60.1018
60.552
60.254
59.9797
59.9259
59.9149
59.9235
59.9175
59.9087
59.9376
59.9801
60.221
60.832
60.1149
60.1119
60.973
60.778
60.535
60.254
60.20
59.9932
59.9575
59.9253
59.9136
59.9027
59.8845
59.8981
59.9627
60.458
60.1019
60.1239
60.1450
60.1397
60.915
60.378
60.3
59.9660
59.9120
59.8815
59.8924
59.8953
59.8839
59.8979
59.9462
59.9934
60.504
60.861
60.887
60.745
60.596
60.416
60.159
59.9904
59.9836
59.9577
59.9312
59.9261
59.9283
59.9150
59.9148
59.9672
60.503
60.1202
60.1521
60.1801
60.1929
60.1534
60.939
60.608
60.286
59.9774
59.9362
59.9334
59.9356
59.9188
59.9206
59.9594
60.31
60.565
60.1056
60.1253
60.1154
60.1001
60.833
60.559
60.229
60.76
59.9840
59.9564
59.9328
59.9282
59.9149
59.8909
59.9298
60.64
60.855
60.1191
60.1433
60.1552
60.1327
60.805
60.416
60.27
59.9705
59.9251
59.9031
59.9025
59.9002
59.8982
59.9285
59.9762
60.324
60.834
60.1022
60.977
60.886
60.685
60.474
60.187
60.3
59.9907
59.9550
59.9316
59.9365
59.9365
59.9223
59.9378
60.83
60.900
60.1421
60.1688
60.1939
60.1831
60.1291
60.868
60.549
60.210
59.9617
59.9317
59.9275
59.9249
59.9153
59.9339
59.9801
60.250
60.744
60.1153
60.1203
60.1058
60.848
60.674
60.419
60.158
60.104
59.9808
59.9448
59.9210
59.9100
59.8916
59.8799
59.9328
60.157
60.759
60.987
60.1236
60.1369
60.985
60.427
60.102
59.9791
59.9303
59.8857
59.8820
59.8903
59.8855
59.8801
59.9143
59.9627
60.84
60.505
60.728
60.707
60.648
60.478
60.249
59.9991
59.9881
59.9684
59.9340
59.9175
59.9182
59.9073
59.8920
59.9332
60.116
60.842
60.1252
60.1522
60.1776
60.1529
60.987
60.722
60.332
59.9877
59.9301
59.9224
59.9211
59.9148
59.9114
59.9379
59.9919
60.457
60.923
60.1191
60.1157
60.993
60.816
60.584
60.271
60.78
60.10
59.9599
59.9202
59.8978
59.8822
59.8609
59.8832
59.9561
60.490
60.973
60.1256
60.1469
60.1389
60.831
60.349
60.20
59.9746
59.9251
59.8908
59.8917
59.8972
59.8890
59.8992
59.9359
59.9820
60.375
60.740
60.862
60.849
60.711
60.576
60.374
60.148
60.73
59.9809
59.9512
59.9457
59.9516
59.9391
59.9351
59.9897
60.742
60.1394
60.1722
60.1956
60.1976
60.1471
60.872
60.448
60.102
59.9621
59.9198
59.9174
59.9185
59.9169
59.9191
59.9654
60.97
60.627
60.1054
60.1179
60.1045
60.836
60.587
60.302
59.9986
59.9919
59.9693
59.9412
59.9188
59.9125
59.9039
59.8870
59.9179
59.9932
60.686
60.1001
60.1133
60.1293
60.936
60.279
59.9831
59.9450
59.9149
59.8644
59.8564
59.8661
59.8700
59.8713
59.9049
59.9539
60.118
60.596
60.813
60.780
60.663
60.467
60.225
59.9870
59.9677
59.9589
59.9278
59.9061
59.9135
59.9141
59.9004
59.9199
59.9863
60.706
60.1223
60.1517
60.1870
60.1770
60.1178
60.677
60.323
60.3
59.9459
59.9179
59.9240
59.9233
59.9159
59.9330
59.9814
60.354
60.910
60.1316
60.1319
60.1204
60.991
60.751
60.455
60.151
60.99
59.9756
59.9399
59.9250
59.9205
59.9037
59.9018
59.9578
60.451
60.1121
60.1328
60.1524
60.1657
60.1248
60.680
60.308
59.9956
59.9493
59.9066
59.9009
59.9155
59.9070
59.9166
59.9619
60.77
60.605
60.1071
60.1330
60.1265
60.1188
60.976
60.692
60.418
60.278
60.22
59.9718
59.9634
59.9713
59.9691
59.9572
59.9972
60.808
60.1538
60.1913
60.2144
60.2333
60.2067
60.1559
60.1198
60.845
60.421
59.9913
59.9863
59.9911
59.9825
59.9792
60.93
60.546
60.988
60.1477
60.1680
60.1682
60.1518
60.1244
60.943
60.580
60.396
60.354
60.48
59.9785
59.9702
59.9533
59.9379
59.9564
60.249
60.1019
60.1436
60.1700
60.1939
60.1765
60.1234
60.765
60.489
60.88
59.9559
59.9374
59.9496
59.9516
59.9449
59.9674
60.143
60.581
60.1090
60.1485
60.1568
60.1491
60.1346
60.1104
60.787
60.500
60.480
60.215
59.9979
59.9933
59.9957
59.9773
59.9857
60.489
60.1322
60.1920
60.2208
60.2422
60.2424
60.1864
60.1219
60.852
60.489
59.9949
59.9585
59.9563
59.9611
59.9568
59.9621
60.102
60.636
60.1127
60.1492
60.1612
60.1506
60.1286
60.1026
60.649
60.310
60.278
59.9983
59.9686
59.9440
59.9332
59.9151
59.9067
59.9482
60.347
60.1127
60.1445
60.1614
60.1780
60.1384
60.766
60.359
59.9970
59.9575
59.9030
59.8945
59.9026
59.9025
59.9104
59.9463
60.28
60.518
60.936
60.1145
60.1112
60.1038
60.851
60.573
60.227
60.116
59.9979
59.9636
59.9489
59.9605
59.9553
59.9378
59.9658
60.399
60.1180
60.1670
60.1971
60.2198
60.1993
60.1409
60.934
60.586
60.217
59.9651
59.9481
59.9578
59.9532
59.9462
59.9727
60.202
60.685
60.1268
60.1582
60.1599
60.1412
60.1242
60.916
60.550
60.213
60.71
59.9809
59.9482
59.9298
59.9223
59.9059
59.9142
59.9709
60.594
60.1149
60.1393
60.1620
60.1601
60.1094
60.598
60.241
59.9915
59.9407
59.9009
59.9073
59.9150
59.9123
59.9246
59.9727
60.221
60.850
60.1315
60.1459
60.1434
60.1318
60.1057
60.735
60.424
60.341
60.90
59.9821
59.9713
59.9755
59.9586
59.9492
59.9934
60.762
60.1379
60.1789
60.2017
60.2197
60.1799
60.1156
60.775
60.452
60.2
59.9540
59.9463
59.9483
59.9461
59.9489
59.9900
60.387
60.964
60.1518
60.1667
60.1518
60.1281
60.1014
60.713
60.358
60.194
59.9984
59.9587
59.9330
59.9256
59.9117
59.8919
59.9207
59.9997
60.818
60.1231
60.1410
60.1649
60.1397
60.841
60.344
59.9987
59.9628
59.9098
59.8893
59.8929
59.8910
59.8910
59.9177
59.9670
60.164
60.691
60.948
60.1008
60.872
60.716
60.400
60.92
59.9829
59.9830
59.9561
59.9358
59.9334
59.9304
59.9126
59.9287
59.9972
60.816
60.1352
60.1659
60.1908
60.1861
60.1280
60.760
60.363
60.19
59.9425
59.9131
59.9235
59.9303
59.9195
59.9322
59.9796
60.301
60.919
60.1280
60.1411
60.1326
60.1154
60.852
60.556
60.256
60.122
59.9873
59.9538
59.9281
59.9213
59.9081
59.9024
59.9481
60.366
60.1055
60.1372
60.1595
60.1696
60.1275
60.696
60.344
59.9964
59.9497
59.9068
59.8980
59.9027
59.8989
59.9009
59.9358
59.9892
60.469
60.959
60.1186
60.1161
60.1120
60.912
60.643
60.388
60.288
60.122
59.9822
59.9678
59.9754
59.9630
59.9500
59.9831
60.594
60.1364
60.1775
60.2073
60.2333
60.2119
60.1603
60.1230
60.891
60.478
59.9944
59.9844
59.9816
59.9726
59.9608
59.9860
60.333
60.796
60.1364
60.1656
60.1557
60.1500
60.1295
60.998
60.647
60.475
60.383
60.37
59.9680
59.9528
59.9419
59.9254
59.9348
60.45
60.860
60.1379
60.1646
60.1956
60.1957
60.1430
60.864
60.516
60.147
59.9598
59.9285
59.9297
59.9308
59.9282
59.9390
59.9865
60.397
60.892
60.1325
60.1368
60.1348
60.1265
60.1011
60.760
60.415
60.380
60.61
59.9772
59.9686
59.9687
59.9515
59.9460
59.9997
60.847
60.1532
60.1829
60.2133
60.2202
60.1754
60.1234
60.894
60.494
60.45
59.9619
59.9618
59.9629
59.9545
59.9565
59.9956
60.427
60.920
60.1435
60.1541
60.1364
60.1208
60.980
60.639
60.325
60.201
59.9994
59.9599
59.9352
59.9252
59.9141
59.8951
59.9262
60.63
60.802
60.1150
60.1424
60.1579
60.1337
60.719
60.318
59.9987
59.9551
59.9031
59.8870
59.8907
59.8883
59.8883
59.9166
59.9613
60.138
60.636
60.905
60.994
60.1047
60.893
60.722
60.404
60.159
60.4
59.9623
59.9320
59.9294
59.9294
59.9068
59.9308
60.69
60.909
60.1442
60.1754
60.2097
60.2029
60.1520
60.1041
60.695
60.309
59.9716
59.9466
59.9536
59.9481
59.9355
59.9476
60.19
60.471
60.1064
60.1472
60.1529
60.1426
60.1247
60.1005
60.717
60.438
60.268
59.9969
59.9552
59.9389
59.9367
59.9133
59.9133
59.9694
60.556
60.1190
60.1535
60.1765
60.1903
60.1499
60.922
60.525
60.181
59.9621
59.9147
59.9082
59.9110
59.9077
59.9069
59.9462
60.22
60.520
60.1009
60.1226
60.1191
60.1126
60.958
60.668
60.379
60.349
60.69
59.9678
59.9508
59.9581
59.9459
59.9337
59.9721
60.508
60.1252
60.1662
60.1948
60.2186
60.1950
60.1374
60.1002
60.661
60.260
59.9734
59.9536
59.9561
59.9516
59.9436
59.9713
60.210
60.769
60.1314
60.1598
60.1490
60.1371
60.1104
60.804
60.395
60.181
60.86
59.9720
59.9423
59.9227
59.9149
59.8930
59.9096
59.9819
60.557
60.997
60.1289
60.1508
60.1428
60.874
60.401
60.81
59.9766
59.9152
59.8826
59.8872
59.8901
59.8830
59.9048
59.9588
60.105
60.639
60.963
60.1011
60.911
60.814
60.589
60.263
60.19
60.10
59.9725
59.9408
59.9367
59.9354
59.9227
59.9305
59.9950
60.845
60.1431
60.1778
60.2104
60.2213
60.1791
60.1244
60.822
60.435
59.9838
59.9493
59.9490
59.9534
59.9395
59.9474
59.9867
60.374
60.890
60.1366
60.1560
60.1420
60.1252
60.1053
60.720
60.433
60.345
60.77
59.9781
59.9530
59.9442
59.9263
59.9129
59.9503
60.328
60.1046
60.1335
60.1571
60.1769
60.1565
60.1025
60.596
60.189
59.9713
59.9212
59.9063
59.9087
59.9031
59.8981
59.9265
59.9786
60.376
60.896
60.1219
60.1225
60.1172
60.1042
60.843
60.564
60.446
60.324
59.9958
59.9778
59.9793
59.9717
59.9465
59.9668
60.360
60.1160
60.1603
60.1925
60.2200
60.2070
60.1573
60.1126
60.699
60.286
59.9768
59.9549
59.9593
59.9561
59.9398
59.9651
60.109
60.603
60.1189
60.1537
60.1557
60.1498
60.1268
60.991
60.655
60.459
60.357
59.9985
59.9617
59.9355
59.9289
59.9127
59.9141
59.9709
60.539
60.1081
60.1309
60.1542
60.1592
60.1097
60.603
60.320
60.61
59.9573
59.9204
59.9221
59.9173
59.9091
59.9162
59.9522
60.7
60.573
60.1010
60.1132
60.1111
60.1055
60.817
60.528
60.224
60.104
59.9869
59.9515
59.9373
59.9421
59.9295
59.9225
59.9704
60.510
60.1212
60.1606
60.1900
60.2078
60.1735
60.1168
60.828
60.459
60.8
59.9528
59.9459
59.9471
59.9358
59.9333
59.9670
60.141
60.613
60.1138
60.1349
60.1260
60.1112
60.934
60.660
60.347
60.158
60.72
59.9719
59.9424
59.9323
59.9238
59.9029
59.9247
60.35
60.777
60.1133
60.1370
60.1595
60.1420
60.879
60.428
60.109
59.9801
59.9219
59.9010
59.8983
59.9020
59.8920
59.9100
59.9524
60.10
60.546
60.910
60.1031
60.964
60.828
60.599
60.389
60.186
60.80
59.9736
59.9450
59.9473
59.9447
59.9255
59.9415
60.8
60.876
60.1454
60.1759
60.2036
60.2087
60.1573
60.1049
60.698
60.259
59.9681
59.9269
59.9295
59.9315
59.9271
59.9296
59.9771
60.250
60.789
60.1256
60.1469
60.1347
60.1142
60.883
60.638
60.282
60.133
59.9868
59.9528
59.9332
59.9323
59.9141
59.9025
59.9432
60.333
60.999
60.1285
60.1449
60.1638
60.1254
60.692
60.298
60.27
59.9551
59.9100
59.8976
59.9096
59.9065
59.9066
59.9438
59.9970
60.501
60.979
60.1152
60.1060
60.988
60.792
60.500
60.207
60.91
59.9878
59.9537
59.9330
59.9403
59.9358
59.9179
59.9507
60.294
60.1072
60.1492
60.1786
60.2071
60.1854
60.1190
60.785
60.472
60.64
59.9526
59.9387
59.9436
59.9384
59.9342
59.9516
60.23
60.451
60.974
60.1269
60.1298
60.1139
60.866
60.563
60.205
59.9939
59.9887
59.9526
59.9236
59.9102
59.9021
59.8826
59.8876
59.9535
60.317
60.833
60.1065
60.1273
60.1295
60.766
60.203
59.9810
59.9448
59.8944
59.8631
59.8678
59.8700
59.8632
59.8779
59.9272
59.9861
60.342
60.753
60.875
60.750
60.615
60.401
60.118
59.9808
59.9787
59.9577
59.9242
59.9173
59.9240
59.9105
59.9061
59.9550
60.421
60.1116
60.1430
60.1698
60.1821
60.1483
60.821
60.432
60.54
59.9539
59.9102
59.9053
59.9170
59.9136
59.9137
59.9518
59.9997
60.605
60.1096
60.1253
60.1105
60.903
60.609
60.241
59.9901
59.9752
59.9618
59.9269
59.8988
59.8965
59.8929
59.8773
59.9130
59.9829
60.586
60.957
60.1140
60.1352
60.1163
60.513
60.85
59.9731
59.9357
59.8859
59.8626
59.8773
59.8724
59.8685
59.9008
59.9556
60.164
60.660
60.967
60.998
60.961
60.851
60.557
60.219
60.9
59.9972
59.9658
59.9360
59.9347
59.9351
59.9152
59.9270
59.9923
60.710
60.1255
60.1593
60.1858
60.1862
60.1317
60.814
60.467
60.86
59.9535
59.9210
59.9257
59.9277
59.9243
59.9387
59.9895
60.396
60.888
60.1307
60.1449
60.1284
60.1101
60.863
60.506
60.162
60.82
59.9765
59.9414
59.9175
59.9113
59.8923
59.8832
59.9283
60.73
60.788
60.1085
60.1315
60.1376
60.984
60.410
60.14
59.9672
59.9255
59.8822
59.8741
59.8801
59.8801
59.8779
59.9158
59.9642
60.158
60.603
60.727
60.708
60.607
60.433
60.237
59.9973
59.9861
59.9737
59.9430
59.9261
59.9223
59.9112
59.8908
59.9234
60.11
60.787
60.1298
60.1589
60.1771
60.1643
60.1070
60.620
60.286
59.9864
59.9335
59.9143
59.9158
59.9093
59.9005
59.9375
59.9821
60.255
60.736
60.1075
60.998
60.855
60.640
60.307
59.9999
59.9738
59.9674
59.9388
59.9014
59.8900
59.8917
59.8716
59.8796
59.9427
60.266
60.821
60.1022
60.1218
60.1234
60.703
60.164
59.9884
59.9542
59.9045
59.8676
59.8730
59.8833
59.8792
59.8792
59.9192
59.9763
60.314
60.695
60.730
60.680
60.605
60.446
60.147
59.9869
59.9847
59.9552
59.9253
59.9210
59.9305
59.9190
59.9101
59.9594
60.366
60.1014
60.1266
60.1550
60.1709
60.1313
60.730
60.374
