=~=~=~=~=~=~=~=~=~=~=~= PuTTY log 2025.04.24 09:04:24 =~=~=~=~=~=~=~=~=~=~=~=




Speed (Hz)
59.9075
60.1380
60.4619
60.6097
60.5379
60.4233
60.3640
60.3817
60.4472
60.4021
60.2621
60.2306
60.2967
60.3527
60.3615
60.2849
60.2213
60.2038
60.2217
60.2669
60.2539
60.1398
60.880
60.1363
60.2028
60.2504
60.1987
60.1426
60.1392
60.1702
60.2141
60.1760
60.420
59.9886
60.396
60.1025
60.1557
60.1316
60.681
60.324
60.412
60.1092
60.1282
60.27
59.9304
59.9933
60.771
60.1142
60.486
59.9725
59.9652
59.9943
60.386
60.636
59.9740
59.8915
59.9087
59.9817
60.678
60.717
59.9986
59.9767
60.87
60.665
60.853
59.9729
59.9010
59.9393
60.59
60.676
60.959
60.527
60.169
60.260
60.829
60.1432
60.532
59.9550
59.9878
60.804
60.1393
60.1215
60.447
60.152
60.334
60.778
60.1319
60.775
59.9816
59.9744
60.355
60.1113
60.1369
60.673
60.315
60.562
60.1039
60.1415
60.558
59.9413
59.9392
60.94
60.667
60.1049
60.586
60.86
59.9987
60.305
60.1014
60.597
59.9326
59.9116
59.9927
60.569
60.695
59.9906
59.9458
59.9609
59.9966
60.461
60.277
59.9292
59.8911
59.9358
60.106
60.763
60.258
59.9646
59.9716
60.250
60.762
60.404
59.9209
59.8958
59.9583
60.256
60.893
60.790
60.302
60.84
60.348
60.1153
60.1283
60.45
59.9463
60.136
60.902
60.1390
60.947
60.348
60.290
60.532
60.985
60.1243
60.382
59.9735
60.36
60.726
60.1399
60.1127
60.421
60.342
60.692
60.1209
60.1202
59.9938
59.9182
59.9617
60.331
60.947
60.1051
60.440
59.9968
59.9995
60.496
60.1004
59.9971
59.8979
59.9357
60.179
60.663
60.457
59.9675
59.9427
59.9651
60.22
60.467
59.9824
59.8883
59.8796
59.9434
60.221
60.525
59.9753
59.9342
59.9610
60.180
60.611
59.9874
59.8901
59.8987
59.9660
60.301
60.777
60.363
59.9945
59.9912
60.384
60.1187
60.649
59.9444
59.9384
60.241
60.892
60.1058
60.362
59.9899
59.9972
60.385
60.1004
60.818
59.9719
59.9367
59.9938
60.629
60.1128
60.605
60.44
60.118
60.534
60.1020
60.590
59.9336
59.8968
59.9569
60.254
60.798
60.510
59.9904
59.9636
59.9782
60.438
60.515
59.9275
59.8730
59.9359
60.60
60.370
59.9786
59.9155
59.9161
59.9453
59.9924
60.193
59.9287
59.8574
59.8836
59.9585
60.371
60.198
59.9431
59.9309
59.9713
60.272
60.340
59.9176
59.8485
59.8985
59.9734
60.374
60.565
60.102
59.9853
60.7
60.601
60.1192
60.231
59.9254
59.9632
60.518
60.1095
60.909
60.195
59.9987
60.149
60.569
60.1077
60.423
59.9482
59.9488
60.191
60.920
60.1159
60.465
60.118
60.355
60.836
60.1220
60.306
59.9141
59.9161
59.9888
60.544
60.922
60.414
59.9879
59.9780
60.169
60.872
60.375
59.9139
59.8982
59.9824
60.499
60.599
59.9751
59.9279
59.9455
59.9777
60.275
60.57
59.8995
59.8563
59.9099
59.9898
60.558
60.47
59.9457
59.9573
60.72
60.566
60.219
59.9053
59.8828
59.9406
60.37
60.655
60.536
60.1
59.9808
60.142
60.898
60.955
59.9700
59.9214
59.9946
60.710
60.1132
60.714
60.127
60.10
60.251
60.787
60.999
60.30
59.9316
59.9632
60.342
60.1028
60.839
60.196
60.113
60.449
60.980
60.1056
59.9805
59.9010
59.9427
60.138
60.675
60.754
60.180
59.9723
59.9683
60.220
60.772
59.9837
59.8840
59.9145
59.9997
60.515
60.308
59.9524
59.9280
59.9556
59.9985
60.392
59.9685
59.8702
59.8609
59.9292
60.148
60.486
59.9772
59.9382
59.9675
60.228
60.643
59.9835
59.8826
59.8972
59.9634
60.257
60.739
60.361
59.9926
59.9927
60.453
60.1182
60.605
59.9424
59.9443
60.331
60.1009
60.1166
60.487
59.9999
60.52
60.402
60.955
60.781
59.9747
59.9365
59.9911
60.646
60.1185
60.655
60.153
60.243
60.642
60.1106
60.694
59.9459
59.9087
59.9703
60.295
60.826
60.591
60.54
59.9736
59.9953
60.640
60.718
59.9463
59.8857
59.9493
60.314
60.700
60.31
59.9334
59.9308
59.9593
60.34
60.255
59.9287
59.8584
59.8856
59.9550
60.341
60.244
59.9571
59.9400
59.9825
60.401
60.513
59.9371
59.8679
59.9059
59.9793
60.441
60.649
60.151
59.9739
59.9882
60.588
60.1173
60.167
59.9292
59.9682
60.535
60.1079
60.915
60.223
59.9911
60.87
60.521
60.1039
60.385
59.9400
59.9400
60.96
60.890
60.1120
60.401
60.88
60.353
60.778
60.1082
60.206
59.9132
59.9147
59.9775
60.374
60.731
60.243
59.9763
59.9599
59.9969
60.728
60.231
59.8979
59.8843
59.9629
60.333
60.442
59.9598
59.9171
59.9331
59.9679
60.159
59.9945
59.8866
59.8448
59.8932
59.9781
60.433
59.9891
59.9294
59.9453
59.9956
60.469
60.171
59.8995
59.8716
59.9359
59.9931
60.485
60.346
59.9890
59.9731
60.80
60.789
60.848
59.9583
59.9110
59.9846
60.682
60.1124
60.660
60.30
59.9887
60.107
60.600
60.905
59.9885
59.9102
59.9408
60.152
60.873
60.688
60.55
60.24
60.363
60.891
60.939
59.9678
59.8840
59.9198
59.9938
60.548
60.585
59.9992
59.9637
59.9672
60.158
60.697
59.9709
59.8706
59.9017
59.9919
60.475
60.177
59.9307
59.9097
59.9317
59.9693
60.177
59.9521
59.8534
59.8495
59.9169
60.2
60.326
59.9639
59.9300
59.9619
60.147
60.497
59.9687
59.8716
59.8847
59.9534
60.156
60.663
60.222
59.9721
59.9686
60.245
60.1086
60.665
59.9469
59.9430
60.274
60.950
60.1124
60.459
60.106
60.183
60.452
60.991
60.836
59.9761
59.9403
59.9975
60.701
60.1277
60.747
60.232
60.341
60.810
60.1300
60.837
59.9534
59.9154
59.9760
60.391
60.913
60.630
60.113
59.9868
60.13
60.668
60.733
59.9458
59.8911
59.9631
60.418
60.815
60.198
59.9561
59.9548
59.9819
60.258
60.489
59.9476
59.8756
59.8998
59.9761
60.608
60.495
59.9734
59.9629
60.53
60.676
60.771
59.9638
59.8934
59.9348
60.80
60.716
60.861
60.327
59.9964
60.145
60.831
60.1418
60.394
59.9470
59.9861
60.736
60.1317
60.1138
60.410
60.185
60.357
60.789
60.1295
60.611
59.9656
59.9668
60.355
60.1138
60.1335
60.603
60.286
60.545
60.1030
60.1377
60.395
59.9282
59.9308
60.10
60.600
60.917
60.388
59.9964
59.9885
60.235
60.876
60.358
59.9125
59.9088
59.9966
60.573
60.579
59.9724
59.9286
59.9440
59.9804
60.290
60.22
59.8927
59.8543
59.9065
59.9869
60.530
59.9983
59.9405
59.9506
60.9
60.513
60.87
59.8963
59.8766
59.9383
60.17
60.609
60.427
59.9945
59.9772
60.117
60.873
60.945
59.9738
59.9306
60.48
60.825
60.1196
60.664
60.60
59.9999
60.283
60.757
60.946
60.33
59.9372
59.9732
60.443
60.1133
60.917
60.203
60.143
60.534
60.1073
60.1090
59.9812
59.9016
59.9426
60.194
60.767
60.795
60.280
59.9957
59.9959
60.447
60.944
59.9959
59.9017
59.9325
60.172
60.710
60.410
59.9649
59.9467
59.9719
60.154
60.645
59.9970
59.8983
59.8958
59.9683
60.579
60.864
60.78
59.9676
59.9973
60.604
60.1021
60.144
59.9211
59.9343
60.54
60.658
60.1116
60.739
60.333
60.429
60.958
60.1658
60.997
59.9828
59.9894
60.750
60.1401
60.1508
60.849
60.491
60.575
60.901
60.1443
60.1177
60.176
59.9932
60.510
60.1222
60.1681
60.1057
60.559
60.692
60.1090
60.1558
60.994
59.9725
59.9469
60.152
60.802
60.1232
60.863
60.343
60.121
60.391
60.1074
60.1036
59.9782
59.9268
59.9901
60.648
60.947
60.249
59.9648
59.9663
59.9933
60.403
60.535
59.9581
59.8926
59.9263
59.9976
60.719
60.508
59.9797
59.9749
60.186
60.740
60.679
59.9465
59.8952
59.9466
60.181
60.832
60.866
60.370
60.55
60.234
60.973
60.1436
60.329
59.9517
60.56
60.924
60.1392
60.1106
60.405
60.187
60.403
60.880
60.1271
60.443
59.9614
59.9755
60.425
60.1149
60.1219
60.496
60.284
60.618
60.1058
60.1316
60.254
59.9201
59.9342
60.80
60.681
60.928
60.403
60.1
59.9918
60.286
60.965
60.298
59.9064
59.9143
60.7
60.615
60.561
59.9762
59.9414
59.9586
59.9976
60.466
60.39
59.8952
59.8687
59.9319
60.206
60.744
60.116
59.9587
59.9791
60.367
60.815
60.310
59.9145
59.8925
59.9549
60.243
60.852
60.601
60.148
60.4
60.454
60.1320
60.1180
59.9931
59.9588
60.424
60.1199
60.1490
60.852
60.345
60.336
60.603
60.1142
60.1290
60.283
59.9643
60.16
60.771
60.1508
60.1138
60.523
60.523
60.861
60.1401
60.1244
59.9934
59.9329
59.9826
60.513
60.1058
60.929
60.393
60.87
60.146
60.730
60.1151
60.81
59.9285
59.9756
60.555
60.956
60.461
59.9659
59.9560
59.9838
60.242
60.590
59.9786
59.8934
59.9064
59.9802
60.580
60.679
59.9929
59.9720
60.96
60.623
60.844
59.9802
59.8983
59.9314
60.41
60.600
60.893
60.491
60.152
60.234
60.820
60.1541
60.763
59.9624
59.9867
60.731
60.1351
60.1300
60.538
60.262
60.403
60.741
60.1227
60.776
59.9754
59.9555
60.214
60.957
60.1361
60.730
60.286
60.469
60.976
60.1396
60.665
59.9423
59.9269
59.9950
60.576
60.984
60.561
60.70
59.9839
60.66
60.824
60.664
59.9371
59.9030
59.9758
60.474
60.735
60.8
59.9475
59.9541
59.9901
60.359
60.261
59.9217
59.8705
59.9161
59.9984
60.704
60.308
59.9680
59.9724
60.178
60.710
60.540
59.9391
59.8897
59.9410
60.77
60.726
60.752
60.260
59.9999
60.240
60.955
60.1306
60.220
59.9544
60.138
60.961
60.1458
60.1047
60.368
60.205
60.479
60.942
60.1287
60.430
59.9624
59.9835
60.552
60.1335
60.1312
60.656
60.492
60.788
60.1296
60.1440
60.288
59.9347
59.9605
60.362
60.969
60.1106
60.532
60.55
60.26
60.559
60.1222
60.440
59.9333
59.9479
60.262
60.847
60.735
59.9912
59.9619
59.9857
60.190
60.679
60.142
59.9099
59.8905
59.9538
60.367
60.848
60.170
59.9754
60.9
60.530
60.964
60.295
59.9222
59.9176
59.9862
60.469
60.970
60.632
60.173
60.133
60.646
60.1497
60.1155
59.9872
59.9685
60.505
60.1240
60.1524
60.873
60.380
60.354
60.681
60.1247
60.1115
60.48
59.9627
60.174
60.904
60.1443
60.1010
60.444
60.530
60.932
60.1437
60.1101
59.9799
59.9246
59.9787
60.487
60.995
60.747
60.193
59.9934
60.53
60.701
60.981
59.9776
59.9087
59.9635
60.411
60.841
60.358
59.9665
59.9579
59.9795
60.183
60.452
59.9555
59.8795
59.8997
59.9735
60.540
60.542
59.9811
59.9609
60.35
60.621
60.779
59.9685
59.8938
59.9354
60.38
60.639
60.836
60.369
60.18
60.164
60.866
60.1441
60.498
59.9572
59.9962
60.804
60.1315
60.1224
60.531
60.238
60.319
60.730
60.1229
60.683
59.9701
59.9615
60.258
60.1037
60.1344
60.714
60.389
60.592
60.1051
60.1408
60.475
59.9349
59.9311
59.9934
60.542
60.993
60.556
60.56
59.9962
60.314
60.1002
60.584
59.9294
59.9109
59.9868
60.548
60.673
59.9878
59.9416
59.9531
59.9852
60.301
60.188
59.9137
59.8643
59.9127
59.9961
60.677
60.265
59.9665
59.9704
60.155
60.659
60.353
59.9170
59.8840
59.9416
60.76
60.746
60.673
60.108
59.9894
60.224
60.1019
60.1219
59.9948
59.9375
60.62
60.853
60.1300
60.827
60.212
60.64
60.356
60.871
60.1154
60.233
59.9502
59.9795
60.531
60.1263
60.1076
60.312
60.203
60.573
60.1139
60.1266
60.73
59.9181
59.9446
60.168
60.783
60.922
60.403
60.1
59.9983
60.451
60.1038
60.144
59.9117
59.9392
60.236
60.712
60.458
59.9647
59.9412
59.9688
60.134
60.595
59.9933
59.9000
59.8919
59.9561
60.373
60.781
60.53
59.9631
59.9877
60.458
60.924
60.13
59.9020
59.9188
59.9911
60.507
60.919
60.508
60.84
60.89
60.589
60.1349
60.868
59.9644
59.9620
60.498
60.1207
60.1389
60.667
60.197
60.237
60.537
60.1115
60.943
59.9885
59.9537
60.67
60.832
60.1421
60.877
60.373
60.488
60.888
60.1359
60.907
59.9524
59.9130
59.9754
60.430
60.938
60.648
60.88
59.9782
59.9980
60.695
60.874
59.9624
59.9019
59.9624
60.387
60.747
60.209
59.9486
59.9417
59.9715
60.189
60.326
59.9335
59.8629
59.8947
59.9767
60.636
60.501
59.9720
59.9535
59.9946
60.509
60.609
59.9477
59.8793
59.9226
59.9918
60.582
60.757
60.251
59.9969
60.141
60.813
60.1349
60.325
59.9380
59.9853
60.727
60.1249
60.1042
60.346
60.109
60.274
60.668
60.1145
60.516
59.9603
59.9585
60.261
60.1025
60.1180
60.518
60.205
60.430
60.916
60.1299
60.358
59.9217
59.9265
59.9965
60.631
60.978
60.463
59.9915
59.9851
60.139
60.803
60.337
59.9153
59.9026
59.9814
60.479
60.542
59.9710
59.9256
59.9385
59.9759
60.278
60.67
59.9034
59.8662
59.9192
59.9980
60.590
60.66
59.9476
59.9555
60.76
60.631
60.314
59.9158
59.8880
59.9464
60.87
60.701
60.554
60.43
59.9850
60.202
60.977
60.1059
59.9847
59.9345
60.51
60.835
60.1246
60.694
60.94
60.29
60.276
60.868
60.1058
60.80
59.9367
59.9745
60.522
60.1218
60.988
60.268
60.191
60.507
60.986
60.1000
59.9773
59.9091
59.9518
60.175
60.755
60.758
60.129
59.9755
59.9772
60.254
60.777
59.9755
59.8763
59.9068
59.9947
60.471
60.155
59.9342
59.9093
59.9327
59.9780
60.268
59.9600
59.8646
59.8604
59.9178
59.9949
60.274
59.9567
59.9199
59.9451
59.9993
60.387
59.9562
59.8580
59.8747
59.9443
60.92
60.575
60.107
59.9667
59.9653
60.173
60.907
60.367
59.9190
59.9200
60.103
60.748
60.855
60.176
59.9790
59.9838
60.138
60.683
60.496
59.9368
59.8932
59.9513
60.278
60.820
60.290
59.9768
59.9902
60.345
60.794
60.336
59.8997
59.8643
59.9195
59.9843
60.394
60.69
59.9510
59.9251
59.9390
60.37
60.139
59.8882
59.8263
59.8866
59.9626
60.3
59.9409
59.8751
59.8728
59.9027
59.9532
59.9747
59.8769
59.7967
59.8184
59.8955
59.9779
59.9691
59.8912
59.8737
59.9197
59.9760
59.9871
59.8695
59.7983
59.8394
59.9085
59.9710
59.9923
59.9458
59.9132
59.9270
59.9869
60.463
59.9491
59.8530
59.8869
59.9721
60.250
60.113
59.9444
59.9173
59.9258
59.9657
60.196
59.9651
59.8647
59.8576
59.9251
59.9983
60.268
59.9588
59.9225
59.9413
59.9848
60.248
59.9511
59.8290
59.8199
59.8878
59.9512
59.9907
59.9443
59.8966
59.8825
59.9100
59.9785
59.9529
59.8256
59.7961
59.8674
59.9387
59.9580
59.8864
59.8364
59.8456
59.8753
59.9209
59.9131
59.8059
59.7519
59.7931
59.8721
59.9491
59.9125
59.8418
59.8412
59.8925
59.9527
59.9313
59.8141
59.7709
59.8240
59.8904
59.9543
59.9524
59.9035
59.8780
59.8998
59.9704
60.48
59.8911
59.8160
59.8755
59.9573
60.24
59.9687
59.9056
59.8896
59.9129
59.9624
59.9981
59.9180
59.8308
59.8417
59.9150
59.9917
59.9941
59.9237
59.9040
59.9341
59.9810
60.23
59.8937
59.7984
59.8148
59.8862
59.9439
59.9663
59.9075
59.8651
59.8606
59.9009
59.9713
59.9068
59.7872
59.7905
59.8747
59.9370
59.9320
59.8479
59.8127
59.8294
59.8617
59.9106
59.8761
59.7707
59.7398
59.7967
59.8771
59.9431
59.8877
59.8340
59.8420
59.8871
59.9407
59.9005
59.7810
59.7574
59.8208
59.8883
59.9450
59.9241
59.8766
59.8600
59.8969
59.9779
59.9807
59.8598
59.8124
59.8851
59.9655
60.29
59.9442
59.8816
59.8720
59.9067
59.9608
59.9752
59.8768
59.8142
59.8523
59.9284
59.9998
59.9743
59.9056
59.8967
59.9351
59.9852
59.9885
59.8560
59.7727
59.8116
59.8859
59.9508
59.9571
59.8999
59.8618
59.8656
59.9175
59.9697
59.8692
59.7690
59.7979
59.8815
59.9372
59.9109
59.8267
59.8040
59.8302
59.8662
59.9119
59.8514
59.7513
59.7383
59.8055
59.8906
59.9292
59.8614
59.8197
59.8439
59.8994
59.9417
59.8606
59.7569
59.7655
59.8317
59.8929
59.9431
59.9034
59.8554
59.8614
59.9097
59.9930
59.9593
59.8333
59.8136
59.8975
59.9721
59.9979
59.9290
59.8722
59.8807
59.9136
59.9697
59.9642
59.8618
59.8158
59.8602
59.9364
60.17
59.9570
59.8951
59.8937
59.9326
59.9861
59.9633
59.8304
59.7751
59.8292
59.8992
59.9584
59.9387
59.8771
59.8464
59.8582
59.9216
59.9468
59.8327
59.7568
59.8131
59.8914
59.9356
59.8924
59.8215
59.8099
59.8351
59.8756
59.9140
59.8328
59.7443
59.7525
59.8221
59.9046
59.9217
59.8460
59.8161
59.8492
59.9092
59.9415
59.8445
59.7585
59.7846
59.8508
59.9138
59.9487
59.9107
59.8712
59.8730
59.9322
60.70
59.9389
59.8230
59.8376
59.9302
59.9935
59.9976
59.9207
59.8795
59.8925
59.9312
59.9912
59.9594
59.8564
59.8267
59.8868
59.9673
60.129
59.9535
59.9015
59.9180
59.9573
60.36
59.9452
59.8202
59.7966
59.8539
59.9206
59.9721
59.9397
59.8809
59.8588
59.8773
59.9430
59.9398
59.8139
59.7608
59.8259
59.9029
59.9345
59.8667
59.8031
59.8092
59.8408
59.8901
59.9038
59.8032
59.7405
59.7672
59.8406
59.9177
59.9005
59.8272
59.8156
59.8623
59.9204
59.9260
59.8119
59.7448
59.7946
59.8649
59.9212
59.9315
59.8829
59.8519
59.8715
59.9451
60.62
59.9051
59.8079
59.8492
59.9378
59.9862
59.9715
59.9013
59.8792
59.8965
59.9428
59.9927
59.9258
59.8308
59.8281
59.8956
59.9753
60.6
59.9263
59.8861
59.9109
59.9589
59.9946
59.9083
59.7882
59.7879
59.8584
59.9200
59.9673
59.9206
59.8650
59.8487
59.8840
59.9607
59.9254
59.7973
59.7713
59.8468
59.9198
59.9380
59.8584
59.8073
59.8179
59.8472
59.8970
59.8920
59.7921
59.7454
59.7923
59.8686
59.9378
59.8942
59.8275
59.8349
59.8871
59.9394
59.9157
59.8009
59.7633
59.8177
59.8886
59.9492
59.9446
59.8947
59.8741
59.9047
59.9757
60.14
59.8813
59.8161
59.8817
59.9671
60.137
59.9795
59.9135
59.9041
59.9249
59.9676
60.6
59.9164
59.8384
59.8613
59.9354
60.40
59.9994
59.9292
59.9133
59.9475
59.9990
60.160
59.9016
59.8060
59.8315
59.9025
59.9614
59.9811
59.9273
59.8839
59.8800
59.9246
59.9925
59.9202
59.8023
59.8076
59.8871
59.9509
59.9435
59.8659
59.8388
59.8554
59.8873
59.9319
59.8906
59.7914
59.7687
59.8282
59.9094
59.9691
59.9089
59.8528
59.8710
59.9248
59.9709
59.9165
59.8060
59.8004
59.8687
59.9253
59.9813
59.9594
59.9106
59.9007
59.9400
60.210
60.105
59.8885
59.8578
59.9329
60.123
60.485
59.9825
59.9285
59.9325
59.9619
60.130
60.204
59.9178
59.8573
59.9011
59.9789
60.515
60.200
59.9492
59.9392
59.9785
60.335
60.268
59.9043
59.8377
59.8798
59.9519
60.166
60.90
59.9462
59.9108
59.9158
59.9716
60.172
59.9084
59.8178
59.8595
59.9455
60.25
59.9666
59.8881
59.8699
59.8947
59.9384
59.9778
59.9076
59.8143
59.8165
59.8837
59.9680
59.9928
59.9208
59.8864
59.9151
59.9775
60.131
59.9217
59.8295
59.8528
59.9249
59.9839
60.262
59.9868
59.9428
59.9426
60.10
60.867
60.287
59.9039
59.9079
59.9939
60.622
60.759
60.74
59.9708
59.9808
60.137
60.667
60.360
59.9336
59.9078
59.9718
60.440
60.897
60.285
59.9782
59.9922
60.314
60.828
60.349
59.9089
59.8720
59.9276
59.9937
60.487
60.145
59.9561
59.9283
59.9474
60.209
60.220
59.8913
59.8406
59.9054
59.9806
60.161
59.9512
59.8929
59.8940
59.9192
59.9610
59.9708
59.8728
59.8063
59.8319
59.9101
59.9946
59.9797
59.9064
59.8910
59.9292
59.9882
59.9992
59.8892
59.8280
59.8706
59.9346
59.9965
60.101
59.9517
59.9175
59.9385
60.74
60.661
59.9622
59.8674
59.9087
59.9970
60.562
60.359
59.9594
59.9365
59.9569
59.9979
60.485
59.9810
59.8785
59.8731
59.9395
60.195
60.432
59.9723
59.9425
59.9705
60.179
60.485
59.9557
59.8470
59.8464
59.9169
59.9822
60.128
59.9601
59.9132
59.9028
59.9332
60.0
59.9545
59.8352
59.8170
59.8922
59.9573
59.9727
59.8970
59.8515
59.8598
59.8987
59.9451
59.9304
59.8217
59.7697
59.8140
59.8973
59.9695
59.9192
59.8592
59.8688
59.9189
59.9724
59.9410
59.8213
59.7883
59.8497
59.9195
59.9828
59.9646
59.9114
59.8886
59.9255
60.38
60.251
59.8968
59.8335
59.9012
59.9858
60.320
59.9914
59.9262
59.9106
59.9323
59.9812
60.151
59.9261
59.8458
59.8698
59.9436
60.201
60.89
59.9379
59.9172
59.9488
59.9993
60.170
59.8984
59.8074
59.8341
59.9046
59.9665
59.9834
59.9307
59.8824
59.8796
59.9370
60.16
59.9160
59.8016
59.8130
59.8957
59.9525
59.9415
59.8599
59.8267
59.8479
59.8849
59.9323
