=~=~=~=~=~=~=~=~=~=~=~= PuTTY log 2025.04.24 08:50:52 =~=~=~=~=~=~=~=~=~=~=~=




Speed (Hz)
60.1584
60.1976
60.2029
60.1697
60.1444
60.1203
60.922
60.460
60.451
60.683
60.833
60.921
60.1361
60.2058
60.2717
60.3377
60.3704
60.3656
60.3484
60.3157
60.2648
60.2101
60.1613
60.1229
60.716
60.211
60.13
59.9908
59.9770
59.9875
60.586
60.1469
60.2112
60.2397
60.2555
60.2405
60.1779
60.985
60.384
59.9742
59.9006
59.8479
59.8475
59.8516
59.8507
59.8647
59.9209
59.9889
60.519
60.1006
60.1215
60.1169
60.995
60.670
60.152
59.9657
59.9381
59.8931
59.8472
59.8341
59.8452
59.8425
59.8442
59.9036
60.41
60.890
60.1333
60.1659
60.1828
60.1463
60.778
60.157
59.9571
59.8911
59.8283
59.8164
59.8302
59.8264
59.8309
59.8834
59.9442
59.9999
60.611
60.944
60.934
60.765
60.450
60.10
59.9514
59.9105
59.8841
59.8509
59.8162
59.8058
59.8019
59.7952
59.8338
59.9244
60.232
60.762
60.1071
60.1271
60.1122
60.478
59.9879
59.9406
59.8870
59.8163
59.7889
59.7957
59.7992
59.8014
59.8311
59.8982
59.9669
60.305
60.734
60.933
60.884
60.728
60.343
59.9836
59.9418
59.9151
59.8682
59.8316
59.8327
59.8380
59.8391
59.8598
59.9358
60.357
60.1119
60.1577
60.1879
60.1916
60.1322
60.634
60.160
59.9625
59.8881
59.8435
59.8432
59.8488
59.8500
59.8729
59.9290
59.9902
60.597
60.1161
60.1404
60.1390
60.1177
60.846
60.369
59.9841
59.9559
59.9159
59.8629
59.8385
59.8292
59.8220
59.8275
59.8812
59.9749
60.652
60.1087
60.1384
60.1552
60.1168
60.524
59.9972
59.9490
59.8866
59.8266
59.8103
59.8164
59.8193
59.8308
59.8697
59.9299
60.6
60.682
60.950
60.998
60.938
60.742
60.369
59.9920
59.9519
59.9236
59.8733
59.8507
59.8522
59.8542
59.8545
59.8942
59.9774
60.755
60.1404
60.1850
60.2124
60.1978
60.1334
60.698
60.113
59.9584
59.8831
59.8539
59.8504
59.8474
59.8470
59.8792
59.9449
60.137
60.835
60.1281
60.1416
60.1306
60.1122
60.759
60.281
59.9763
59.9570
59.9146
59.8746
59.8565
59.8541
59.8451
59.8614
59.9284
60.295
60.1045
60.1367
60.1667
60.1670
60.1066
60.461
59.9963
59.9462
59.8824
59.8309
59.8226
59.8317
59.8379
59.8523
59.9023
59.9711
60.408
60.919
60.1119
60.1131
60.981
60.760
60.352
59.9899
59.9587
59.9295
59.8912
59.8719
59.8778
59.8774
59.8754
59.9351
60.339
60.1273
60.1826
60.2243
60.2394
60.2065
60.1323
60.731
60.196
59.9599
59.8967
59.8901
59.8987
59.8952
59.8972
59.9494
60.153
60.838
60.1504
60.1856
60.1857
60.1732
60.1401
60.950
60.481
60.39
59.9726
59.9215
59.8859
59.8769
59.8729
59.8668
59.9053
59.9993
60.956
60.1572
60.1926
60.2162
60.2019
60.1388
60.794
60.237
59.9706
59.8996
59.8652
59.8714
59.8753
59.8771
59.9043
59.9641
60.315
60.1021
60.1466
60.1566
60.1485
60.1316
60.1011
60.576
60.176
59.9920
59.9525
59.9168
59.9133
59.9209
59.9123
59.9347
60.20
60.979
60.1665
60.2118
60.2412
60.2426
60.1818
60.1130
60.628
60.78
59.9468
59.9002
59.8967
59.9103
59.9138
59.9374
59.9966
60.590
60.1252
60.1745
60.1921
60.1816
60.1576
60.1279
60.809
60.278
60.18
59.9644
59.9228
59.8969
59.8940
59.8929
59.8954
59.9550
60.583
60.1476
60.1908
60.2213
60.2327
60.1916
60.1243
60.703
60.153
59.9517
59.8832
59.8646
59.8653
59.8626
59.8730
59.9153
59.9797
60.516
60.1158
60.1470
60.1468
60.1396
60.1185
60.826
60.354
59.9927
59.9546
59.9053
59.8804
59.8892
59.8862
59.8802
59.9152
60.22
60.1016
60.1628
60.2022
60.2275
60.2089
60.1459
60.871
60.322
59.9746
59.9096
59.8798
59.8809
59.8776
59.8805
59.9161
59.9805
60.503
60.1219
60.1750
60.1830
60.1742
60.1455
60.1093
60.611
60.116
59.9796
59.9354
59.8988
59.8854
59.8808
59.8775
59.8922
59.9639
60.632
60.1282
60.1689
60.1981
60.1950
60.1427
60.761
60.285
59.9757
59.9102
59.8631
59.8602
59.8651
59.8625
59.8776
59.9329
59.9963
60.607
60.1096
60.1384
60.1335
60.1272
60.1012
60.608
60.108
59.9847
59.9504
59.9080
59.8913
59.8948
59.8848
59.8810
59.9361
60.341
60.1195
60.1643
60.2015
60.2231
60.1833
60.1153
60.645
60.123
59.9539
59.9028
59.8962
59.8985
59.8916
59.8941
59.9411
60.50
60.726
60.1353
60.1753
60.1692
60.1548
60.1233
60.839
60.314
59.9928
59.9575
59.9132
59.8837
59.8734
59.8589
59.8414
59.8825
59.9727
60.656
60.1222
60.1576
60.1870
60.1635
60.1033
60.414
59.9858
59.9352
59.8647
59.8344
59.8394
59.8455
59.8473
59.8756
59.9372
60.2
60.644
60.1073
60.1168
60.1067
60.839
60.497
60.4
59.9538
59.9239
59.8824
59.8488
59.8457
59.8512
59.8398
59.8560
59.9359
60.364
60.1074
60.1477
60.1911
60.1929
60.1401
60.726
60.172
59.9610
59.8911
59.8440
59.8433
59.8485
59.8431
59.8591
59.9079
59.9702
60.342
60.937
60.1159
60.1119
60.969
60.597
60.151
59.9682
59.9356
59.8967
59.8563
59.8301
59.8335
59.8274
59.8378
59.8926
59.9897
60.746
60.1162
60.1443
60.1541
60.1159
60.496
59.9910
59.9350
59.8725
59.8120
59.7989
59.8118
59.8130
59.8242
59.8767
59.9444
60.172
60.805
60.1188
60.1191
60.1115
60.888
60.464
59.9995
59.9647
59.9327
59.8901
59.8611
59.8608
59.8593
59.8549
59.8959
59.9899
60.836
60.1432
60.1885
60.2177
60.1989
60.1343
60.730
60.181
59.9597
59.8859
59.8610
59.8687
59.8692
59.8715
59.8999
59.9674
60.394
60.1080
60.1608
60.1718
60.1580
60.1306
60.908
60.425
59.9915
59.9666
59.9217
59.8828
59.8688
59.8708
59.8596
59.8797
59.9526
60.475
60.1290
60.1575
60.1876
60.1880
60.1297
60.625
60.84
59.9539
59.8850
59.8363
59.8301
59.8356
59.8359
59.8481
59.9054
59.9721
60.437
60.951
60.1198
60.1235
60.1154
60.871
60.433
60.6
59.9696
59.9393
59.8947
59.8806
59.8875
59.8878
59.8932
59.9502
60.446
60.1262
60.1700
60.2024
60.2202
60.1824
60.1107
60.565
60.5
59.9353
59.8743
59.8602
59.8686
59.8656
59.8719
59.9151
59.9825
60.531
60.1183
60.1529
60.1567
60.1394
60.1116
60.700
60.188
59.9831
59.9477
59.9026
59.8727
59.8596
59.8520
59.8406
59.8771
59.9645
60.656
60.1178
60.1485
60.1656
60.1467
60.810
60.195
59.9633
59.9127
59.8494
59.8203
59.8333
59.8415
59.8475
59.8777
59.9426
60.86
60.730
60.1146
60.1225
60.1192
60.967
60.591
60.123
59.9717
59.9359
59.8917
59.8533
59.8510
59.8560
59.8538
59.8750
59.9505
60.558
60.1340
60.1774
60.2083
60.2138
60.1633
60.1034
60.511
59.9948
59.9257
59.8819
59.8835
59.8818
59.8756
59.8968
59.9532
60.168
60.820
60.1437
60.1664
60.1603
60.1385
60.1044
60.590
60.79
59.9808
59.9378
59.8951
59.8668
59.8631
59.8590
59.8551
59.9054
60.13
60.923
60.1312
60.1621
60.1788
60.1440
60.774
60.229
59.9634
59.9027
59.8418
59.8277
59.8379
59.8368
59.8486
59.8880
59.9526
60.290
60.930
60.1317
60.1434
60.1331
60.1112
60.715
60.211
59.9880
59.9541
59.9042
59.8887
59.8964
59.8998
59.8870
59.9279
60.176
60.1083
60.1664
60.2068
60.2340
60.2186
60.1435
60.790
60.243
59.9671
59.8939
59.8698
59.8662
59.8647
59.8719
59.9061
59.9725
60.403
60.1103
60.1529
60.1602
60.1490
60.1194
60.843
60.373
59.9967
59.9715
59.9305
59.8927
59.8771
59.8763
59.8678
59.8823
59.9555
60.589
60.1315
60.1706
60.1995
60.2025
60.1448
60.782
60.294
59.9728
59.9083
59.8601
59.8573
59.8602
59.8565
59.8769
59.9330
59.9959
60.678
60.1194
60.1448
60.1451
60.1310
60.1043
60.672
60.186
59.9910
59.9507
59.9053
59.8981
59.9070
59.9057
59.9068
59.9718
60.709
60.1528
60.1950
60.2158
60.2264
60.1878
60.1129
60.606
60.82
59.9391
59.8772
59.8769
59.8889
59.8859
59.8986
59.9495
60.91
60.717
60.1370
60.1748
60.1702
60.1559
60.1220
60.804
60.369
60.18
59.9756
59.9382
59.9052
59.9029
59.9042
59.8927
59.9334
60.153
60.1116
60.1575
60.1826
60.2055
60.1898
60.1235
60.642
60.150
59.9574
59.8858
59.8545
59.8531
59.8593
59.8599
59.8967
59.9552
60.287
60.1005
60.1378
60.1571
60.1496
60.1238
60.776
60.331
59.9905
59.9672
59.9240
59.8975
59.9028
59.9078
59.9014
59.9254
60.12
60.1022
60.1696
60.2062
60.2342
60.2330
60.1780
60.1108
60.558
60.42
59.9359
59.8955
59.8930
59.8939
59.8889
59.9128
59.9681
60.350
60.1017
60.1599
60.1877
60.1838
60.1537
60.1190
60.717
60.260
60.4
59.9608
59.9165
59.8875
59.8828
59.8769
59.8770
59.9337
60.351
60.1164
60.1551
60.1803
60.1971
60.1621
60.960
60.354
59.9817
59.9241
59.8559
59.8399
59.8496
59.8528
59.8692
59.9148
59.9839
60.512
60.1124
60.1440
60.1471
60.1336
60.1114
60.723
60.238
59.9867
59.9539
59.9141
59.8981
59.9072
59.9097
59.9088
59.9521
60.422
60.1331
60.1877
60.2242
60.2464
60.2272
60.1592
60.1023
60.516
59.9904
59.9275
59.9020
59.9070
59.9095
59.9047
59.9384
60.15
60.666
60.1363
60.1805
60.1877
60.1812
60.1598
60.1201
60.707
60.271
60.24
59.9547
59.9207
59.9120
59.9060
59.8913
59.9059
59.9814
60.782
60.1483
60.1857
60.2176
60.2130
60.1565
60.867
60.395
59.9892
59.9179
59.8784
59.8726
59.8756
59.8734
59.8954
59.9525
60.222
60.897
60.1388
60.1606
60.1577
60.1461
60.1121
60.678
60.175
59.9946
59.9552
59.9148
59.9088
59.9158
59.9056
59.9108
59.9790
60.774
60.1568
60.1974
60.2294
60.2526
60.2075
60.1369
60.871
60.352
59.9735
59.9199
59.9132
59.9223
59.9153
59.9189
59.9705
60.345
60.939
60.1534
60.1866
60.1833
60.1696
60.1427
60.1002
60.504
60.229
59.9912
59.9508
59.9187
59.9159
59.9083
59.8981
59.9386
60.263
60.1204
60.1648
60.1916
60.2086
60.1898
60.1233
60.705
60.187
59.9632
59.9000
59.8759
59.8900
59.8927
59.8981
59.9310
59.9930
60.650
60.1288
60.1677
60.1856
60.1793
60.1569
60.1215
60.739
60.304
60.41
59.9666
59.9381
59.9412
59.9401
59.9275
59.9507
60.321
60.1234
60.1889
60.2317
60.2676
60.2559
60.1971
60.1313
60.849
60.307
59.9597
59.9169
59.9206
59.9300
59.9200
59.9447
60.42
60.701
60.1384
60.1977
60.2086
60.1974
60.1812
60.1471
60.1021
60.562
60.261
59.9834
59.9353
59.9181
59.9142
59.9084
59.9117
59.9774
60.807
60.1560
60.1888
60.2168
60.2269
60.1861
60.1190
60.670
60.166
59.9535
59.8947
59.8858
59.8971
59.8968
59.9098
59.9651
60.302
60.1000
60.1600
60.1887
60.1862
60.1735
60.1470
60.1064
60.642
60.351
59.9950
59.9566
59.9377
59.9415
59.9338
59.9334
59.9857
60.783
60.1706
60.2275
60.2640
60.2902
60.2513
60.1790
60.1181
60.734
60.138
59.9452
59.9269
59.9300
59.9290
59.9328
59.9661
60.263
60.883
60.1531
60.1888
60.1952
60.1817
60.1525
60.1199
60.784
60.349
60.169
59.9677
59.9372
59.9236
59.9132
59.9033
59.9284
60.102
60.1096
60.1696
60.2040
60.2272
60.2211
60.1578
60.951
60.432
59.9901
59.9180
59.8832
59.8898
59.8928
59.8981
59.9266
59.9920
60.601
60.1266
60.1776
60.1972
60.1908
60.1652
60.1370
60.922
60.485
60.164
59.9745
59.9313
59.9242
59.9252
59.9214
59.9384
60.95
60.1104
60.1874
60.2380
60.2731
60.2839
60.2323
60.1664
60.1119
60.618
59.9946
59.9420
59.9384
59.9303
59.9253
59.9386
59.9917
60.526
60.1224
60.1852
60.2094
60.2017
60.1837
60.1612
60.1189
60.697
60.439
60.58
59.9619
59.9368
59.9311
59.9193
59.9128
59.9631
60.568
60.1440
60.1894
60.2142
60.2303
60.2005
60.1328
60.781
60.258
59.9662
59.9054
59.8854
59.8848
59.8798
59.8881
59.9274
59.9894
60.657
60.1312
60.1769
60.1789
60.1748
60.1487
60.1174
60.638
60.291
59.9993
59.9523
59.9238
59.9244
59.9208
59.9099
59.9463
60.286
60.1229
60.1863
60.2312
60.2619
60.2466
60.1806
60.1198
60.625
60.102
59.9427
59.9101
59.9191
59.9121
59.9145
59.9488
60.68
60.706
60.1408
60.1868
60.2007
60.1912
60.1705
60.1344
60.837
60.345
60.55
59.9624
59.9149
59.8929
59.8976
59.8829
59.8963
59.9786
60.838
60.1581
60.1968
60.2311
60.2388
60.1821
60.1150
60.624
60.134
59.9429
59.8926
59.8881
59.8907
59.8894
59.9003
59.9591
60.287
60.985
60.1559
60.1755
60.1737
60.1604
60.1360
60.965
60.471
60.204
59.9760
59.9317
59.9168
59.9163
59.9094
59.9086
59.9668
60.559
60.1422
60.1941
60.2358
60.2600
60.2289
60.1630
60.1035
60.568
59.9904
59.9287
59.9174
59.9213
59.9141
59.9198
59.9705
60.297
60.921
60.1563
60.1929
60.1986
60.1830
60.1556
60.1111
60.618
60.246
59.9911
59.9500
59.9211
59.9175
59.9099
59.8946
59.9284
60.155
60.1157
60.1713
60.2081
60.2351
60.2194
60.1562
60.975
60.437
59.9887
59.9204
59.8912
59.8904
59.8914
59.8877
59.9177
59.9747
60.460
60.1149
60.1629
60.1779
60.1693
60.1481
60.1226
60.829
60.416
60.177
59.9638
59.9317
59.9278
59.9286
59.9164
59.9412
60.227
60.1156
60.1891
60.2282
60.2642
60.2603
60.2047
60.1430
60.883
60.312
59.9612
59.9237
59.9230
59.9198
59.9137
59.9342
59.9907
60.529
60.1213
60.1769
60.1978
60.1932
60.1705
60.1393
60.962
60.424
60.165
59.9716
59.9283
59.9013
59.8978
59.8833
59.8807
59.9457
60.424
60.1289
60.1746
60.2038
60.2225
60.1822
60.1208
60.684
60.113
59.9430
59.8775
59.8672
59.8764
59.8784
59.8863
59.9348
60.1
60.699
60.1317
60.1628
60.1663
60.1509
60.1338
60.990
60.464
60.191
59.9878
59.9383
59.9230
59.9307
59.9226
59.9102
59.9504
60.384
60.1318
60.1898
60.2316
60.2602
60.2373
60.1711
60.1158
60.620
60.31
59.9355
59.9129
59.9214
59.9148
59.9091
59.9447
60.5
60.624
60.1291
60.1736
60.1803
60.1715
60.1516
60.1166
60.658
60.226
60.16
59.9641
59.9356
59.9158
59.9088
59.8939
59.9133
59.9918
60.980
60.1615
60.2023
60.2290
60.2249
60.1636
60.1033
60.521
59.9991
59.9281
59.8839
59.8843
59.8895
59.8884
59.9154
59.9734
60.311
60.1016
60.1542
60.1734
60.1761
60.1559
60.1301
60.907
60.453
60.238
59.9819
59.9365
59.9255
59.9279
59.9217
59.9269
59.9997
60.951
60.1811
60.2270
60.2643
60.2760
60.2355
60.1735
60.1194
60.663
59.9936
59.9356
59.9212
59.9172
59.9054
59.9114
59.9638
60.253
60.997
60.1618
60.1905
60.1831
60.1693
60.1366
60.947
60.442
60.134
59.9772
59.9341
59.8964
59.8808
59.8700
59.8621
59.9038
59.9934
60.862
60.1347
60.1720
60.1978
60.1726
60.1104
60.610
60.73
59.9450
59.8810
59.8551
59.8585
59.8603
59.8623
59.8967
59.9541
60.136
60.811
60.1128
60.1220
60.1234
60.1075
60.787
60.353
59.9952
59.9639
59.9187
59.8808
59.8815
59.8761
59.8643
59.8978
59.9831
60.769
60.1410
60.1870
60.2186
60.2118
60.1536
60.1003
60.446
59.9888
59.9221
59.8897
59.8957
59.9052
59.9009
59.9207
59.9817
60.415
60.1110
60.1631
60.1741
60.1648
60.1411
60.1023
60.570
60.25
59.9793
59.9376
59.8999
59.8741
59.8703
59.8601
59.8648
59.9281
60.324
60.1040
60.1437
60.1689
60.1763
60.1273
60.642
60.167
59.9629
59.8988
59.8388
59.8259
59.8306
59.8335
59.8501
59.9045
59.9738
60.421
60.1055
60.1343
60.1371
60.1294
60.1036
60.653
60.196
59.9879
59.9530
59.9086
59.8887
59.8840
59.8779
59.8632
59.9216
60.140
60.1071
60.1620
60.2076
60.2333
60.2052
60.1378
60.791
60.220
59.9524
59.8803
59.8562
59.8639
59.8551
59.8555
59.8959
59.9628
60.273
60.971
60.1360
60.1494
60.1366
60.1071
60.681
60.141
59.9666
59.9339
59.8802
59.8424
59.8196
59.8182
59.8043
59.8324
59.9126
60.97
60.742
60.1060
60.1302
60.1195
60.576
60.2
59.9455
59.8865
59.8204
59.7868
59.7871
59.7923
59.7945
59.8201
59.8785
59.9509
60.207
60.697
60.783
60.779
60.708
60.372
59.9949
59.9457
59.9211
59.8774
59.8406
59.8261
59.8346
59.8259
59.8287
59.8911
59.9884
60.687
60.1181
60.1520
60.1646
60.1206
60.535
60.56
59.9492
59.8844
59.8318
59.8232
59.8281
59.8131
59.8250
59.8825
59.9459
60.130
60.788
60.1151
60.1141
60.997
60.650
60.216
59.9686
59.9348
59.9059
59.8550
59.8252
59.8208
59.8120
59.8105
59.8539
59.9465
60.380
60.867
60.1160
60.1382
60.1138
60.525
59.9945
59.9394
59.8894
59.8150
59.7950
59.7943
59.7958
59.7979
59.8302
59.8947
59.9632
60.316
60.730
60.850
60.769
60.598
60.305
59.9829
59.9448
59.9197
59.8727
59.8349
59.8277
59.8339
59.8341
59.8614
59.9449
60.512
60.1183
60.1588
60.1910
60.1857
60.1316
60.710
60.138
59.9576
59.8943
59.8469
59.8522
59.8511
59.8471
59.8734
59.9307
59.9953
60.642
60.1173
60.1324
60.1275
60.1100
60.790
60.288
59.9737
59.9468
59.9004
59.8574
59.8328
59.8333
59.8292
59.8341
59.8984
60.70
60.860
60.1256
60.1507
60.1652
60.1261
60.583
60.57
59.9485
59.8834
59.8191
59.8069
59.8222
59.8220
59.8337
59.8859
59.9531
60.208
60.775
60.1087
60.1118
60.1071
60.802
60.448
59.9974
59.9587
59.9265
59.8802
59.8568
59.8563
59.8574
59.8532
59.9001
59.9944
60.868
60.1438
60.1843
60.2156
60.1931
60.1209
60.598
60.73
59.9467
59.8812
59.8504
59.8567
59.8587
59.8526
59.8888
59.9544
60.166
60.895
60.1302
60.1416
60.1215
60.899
60.501
59.9976
59.9540
59.9292
59.8832
59.8504
59.8361
59.8306
59.8140
59.8389
59.9112
60.129
60.832
60.1150
60.1441
60.1478
60.915
60.180
59.9578
59.8985
59.8318
59.7887
59.7894
59.7919
59.7882
59.8132
59.8747
59.9466
60.170
60.695
60.909
60.946
60.888
60.608
60.197
59.9750
59.9477
59.9019
59.8560
59.8443
59.8548
59.8473
59.8522
59.9095
60.30
60.874
60.1357
60.1715
60.1918
60.1479
60.786
60.266
59.9764
59.9124
59.8492
59.8413
59.8510
59.8495
59.8579
59.9086
59.9778
60.461
60.1083
60.1453
60.1437
60.1270
60.939
60.515
60.6
59.9654
59.9366
59.8895
59.8587
59.8487
59.8308
59.8222
59.8602
59.9399
60.339
60.894
60.1254
60.1574
60.1387
60.719
60.167
59.9624
59.9051
59.8460
59.8146
59.8179
59.8280
59.8310
59.8692
59.9344
60.75
60.700
60.1101
60.1198
60.1166
60.1029
60.649
60.209
59.9766
59.9530
59.9025
59.8658
59.8622
59.8587
59.8457
59.8675
59.9431
60.435
60.1146
60.1650
60.2008
60.2057
60.1482
60.805
60.265
59.9634
59.8918
59.8521
59.8520
59.8489
59.8431
59.8607
59.9178
59.9824
60.543
60.1057
60.1205
60.1189
60.975
60.641
60.210
59.9665
59.9451
59.9047
59.8523
59.8245
59.8230
59.8151
59.8168
59.8655
59.9640
60.514
60.975
60.1320
60.1502
60.1100
60.433
59.9840
59.9280
59.8605
59.7931
59.7786
59.7811
59.7774
59.7877
59.8330
59.9005
59.9647
60.261
60.580
60.654
60.621
60.388
59.9993
59.9621
59.9253
59.8906
59.8468
59.8201
59.8199
59.8128
59.8049
59.8468
59.9328
60.234
60.871
60.1274
60.1483
60.1316
60.662
60.94
59.9591
59.9085
59.8340
59.8110
59.8140
59.8116
59.8131
59.8393
59.9051
59.9683
60.357
60.807
60.960
60.834
60.593
60.176
59.9764
59.9324
59.9111
59.8667
59.8306
59.8038
59.7979
59.7851
59.8008
59.8761
59.9788
60.564
60.993
60.1315
60.1366
60.870
60.240
59.9748
59.9217
59.8560
59.8000
59.7935
59.8023
59.8040
59.8181
59.8724
59.9381
60.88
60.704
60.1026
60.1011
60.972
60.666
60.213
59.9704
59.9367
59.8972
59.8566
59.8451
59.8482
59.8503
59.8548
59.9095
60.12
60.872
60.1375
60.1787
60.2043
60.1695
60.1045
60.515
60.26
59.9417
59.8758
59.8636
59.8685
59.8638
59.8656
59.9080
59.9706
60.419
60.1088
60.1444
60.1489
60.1386
60.1191
60.773
60.321
59.9918
59.9648
59.9246
59.8867
59.8706
59.8717
59.8586
59.8916
59.9738
60.741
60.1285
60.1548
60.1809
60.1708
60.1085
60.373
59.9861
59.9376
59.8576
59.8170
59.8150
59.8146
59.8126
59.8398
59.9080
59.9746
60.495
60.969
60.1103
60.1058
60.898
60.517
60.37
59.9574
59.9293
59.8885
59.8512
59.8456
59.8511
59.8265
59.8432
59.9211
60.245
60.1148
60.1602
60.1962
60.2077
60.1496
60.811
60.325
59.9764
