=~=~=~=~=~=~=~=~=~=~=~= PuTTY log 2025.04.16 15:09:09 =~=~=~=~=~=~=~=~=~=~=~=




Speed (Hz)
60.1841
60.1372
60.1557
60.1935
60.2480
60.3227
60.4109
60.4888
60.5431
60.5597
60.5358
60.5080
60.4758
60.4375
60.3915
60.3454
60.2891
60.2118
60.1406
60.939
60.683
60.527
60.556
60.988
60.1445
60.1615
60.1538
60.1312
60.987
60.444
59.9975
59.9655
59.9257
59.8742
59.8180
59.8031
59.8004
59.8029
59.8285
59.8776
59.9414
60.46
60.558
60.699
60.694
60.689
60.612
60.582
60.418
60.382
60.19
59.9566
59.9383
59.9368
59.9465
59.9645
60.172
60.889
60.1455
60.1721
60.1791
60.1733
60.1392
60.909
60.569
60.205
59.9608
59.8985
59.8640
59.8364
59.8249
59.8140
59.8365
59.8722
59.9021
59.9265
59.9205
59.8907
59.8488
59.8012
59.7631
59.7226
59.6852
59.6398
59.5615
59.5021
59.4778
59.4683
59.4722
59.5100
59.5826
59.6639
59.7048
59.7204
59.7314
59.7267
59.6984
59.6873
59.6841
59.6735
59.6427
59.6242
59.6299
59.6569
59.6892
59.7381
59.8143
59.8914
59.9679
60.166
60.357
60.416
60.457
60.452
60.430
60.346
60.345
60.37
59.9708
59.9693
59.9892
60.98
60.415
60.1136
60.1982
60.2549
60.2826
60.2829
60.2691
60.2247
60.1747
60.1346
60.874
60.214
59.9586
59.9272
59.9054
59.8919
59.8899
59.9154
59.9459
59.9737
59.9896
59.9700
59.9283
59.8871
59.8515
59.8062
59.7621
59.7219
59.6705
59.6017
59.5511
59.5358
59.5318
59.5368
59.5794
59.6574
59.7282
59.7615
59.7738
59.7669
59.7565
59.7329
59.7178
59.7111
59.6943
59.6574
59.6428
59.6581
59.6836
59.7251
59.7854
59.8672
59.9505
60.299
60.783
60.995
60.1126
60.1217
60.1262
60.1286
60.1260
60.1227
60.887
60.640
60.742
60.907
60.1071
60.1397
60.2126
60.2917
60.3399
60.3516
60.3560
60.3440
60.2955
60.2603
60.2251
60.1803
60.1162
60.658
60.365
60.245
60.81
60.118
60.387
60.688
60.875
60.878
60.590
60.101
59.9678
59.9237
59.8759
59.8358
59.7948
59.7201
59.6500
59.6126
59.5993
59.5920
59.5955
59.6519
59.7287
59.7878
59.8106
59.8234
59.8278
59.8015
59.7771
59.7648
59.7481
59.7203
59.6797
59.6739
59.6945
59.7118
59.7501
59.8075
59.8822
59.9572
60.203
60.546
60.579
60.662
60.688
60.771
60.714
60.794
60.658
60.326
60.117
60.302
60.519
60.772
60.1370
60.2194
60.2981
60.3325
60.3406
60.3356
60.3041
60.2473
60.2103
60.1693
60.1226
60.552
60.95
59.9953
59.9859
59.9867
60.84
60.414
60.711
60.996
60.991
60.690
60.351
59.9933
59.9460
59.9004
59.8671
59.8282
59.7506
59.6828
59.6509
59.6416
59.6332
59.6583
59.7164
59.7878
59.8319
59.8474
59.8503
59.8391
59.8121
59.7826
59.7763
59.7623
59.7301
59.7026
59.7097
59.7372
59.7674
59.8128
59.8832
59.9604
60.347
60.884
60.1045
60.1105
60.1145
60.1214
60.1205
60.1128
60.1148
60.971
60.653
60.563
60.742
60.997
60.1261
60.1915
60.2755
60.3424
60.3733
60.3875
60.3857
60.3473
60.3049
60.2698
60.2339
60.1839
60.1232
60.895
60.708
60.573
60.603
60.794
60.1128
60.1387
60.1510
60.1321
60.916
60.506
60.93
59.9644
59.9292
59.9005
59.8482
59.7802
59.7291
59.7100
59.7022
59.7015
59.7472
59.8156
59.8932
59.9264
59.9372
59.9388
59.9223
59.8863
59.8727
59.8630
59.8455
59.8070
59.7814
59.7850
59.8093
59.8395
59.8863
59.9562
60.281
60.1040
60.1502
60.1680
60.1775
60.1830
60.1935
60.1893
60.1902
60.1832
60.1472
60.1216
60.1266
60.1416
60.1575
60.1928
60.2711
60.3445
60.3954
60.4073
60.4009
60.3749
60.3224
60.2804
60.2479
60.2032
60.1392
60.880
60.680
60.531
60.480
60.532
60.846
60.1103
60.1372
60.1440
60.1112
60.710
60.261
59.9808
59.9309
59.8897
59.8556
59.7876
59.7153
59.6703
59.6505
59.6411
59.6554
59.7108
59.7852
59.8402
59.8591
59.8601
59.8573
59.8278
59.8059
59.8028
59.7943
59.7809
59.7510
59.7439
59.7610
59.7940
59.8322
59.8980
59.9784
60.549
60.1144
60.1362
60.1425
60.1421
60.1460
60.1512
60.1473
60.1422
60.1235
60.859
60.731
60.960
60.1204
60.1404
60.1948
60.2837
60.3549
60.3801
60.3891
60.3839
60.3536
60.3008
60.2612
60.2214
60.1682
60.975
60.585
60.444
60.279
60.223
60.393
60.664
60.930
60.1122
60.1058
60.671
60.256
59.9858
59.9447
59.8986
59.8647
59.8250
59.7566
59.6950
59.6703
59.6648
59.6566
59.6783
59.7400
59.8112
59.8509
59.8619
59.8557
59.8374
59.8031
59.7835
59.7719
59.7523
59.7254
59.6974
59.7049
59.7278
59.7613
59.8141
59.8878
59.9656
60.446
60.1029
60.1254
60.1332
60.1372
60.1431
60.1513
60.1537
60.1549
60.1291
60.948
60.895
60.1089
60.1192
60.1426
60.2116
60.2997
60.3617
60.3849
60.3919
60.3873
60.3557
60.3127
60.2847
60.2489
60.2066
60.1430
60.1125
60.949
60.891
60.905
60.1250
60.1556
60.1822
60.1901
60.1656
60.1223
60.821
60.361
59.9886
59.9341
59.8983
59.8458
59.7720
59.7202
59.6985
59.6976
59.7058
59.7567
59.8352
59.9069
59.9361
59.9438
59.9486
59.9398
59.9065
59.8917
59.8796
59.8624
59.8291
59.8103
59.8205
59.8433
59.8788
59.9280
59.9974
60.737
60.1426
60.1771
60.1899
60.1908
60.1959
60.1984
60.1960
60.1956
60.1911
60.1510
60.1291
60.1279
60.1505
60.1675
60.2125
60.2942
60.3711
60.4089
60.4144
60.4128
60.3907
60.3441
60.2959
60.2525
60.2115
60.1424
60.864
60.616
60.473
60.450
60.513
60.787
60.1096
60.1355
60.1357
60.1066
60.629
60.237
59.9830
59.9396
59.8963
59.8629
59.8028
59.7408
59.7015
59.6902
59.6911
59.7065
59.7674
59.8434
59.9019
59.9144
59.9164
59.9127
59.8843
59.8556
59.8497
59.8384
59.8195
59.7879
59.7994
59.8173
59.8517
59.8996
59.9720
60.487
60.1299
60.1923
60.2255
60.2200
60.2191
60.2178
60.2137
60.2107
60.2088
60.1821
60.1417
60.1277
60.1419
60.1618
60.1822
60.2435
60.3220
60.3901
60.4166
60.4221
60.4095
60.3703
60.3220
60.2831
60.2449
60.1944
60.1297
60.886
60.704
60.578
60.563
60.634
60.902
60.1147
60.1294
60.1122
60.634
60.208
59.9657
59.9166
59.8688
59.8224
59.7827
59.7133
59.6621
59.6363
59.6279
59.6305
59.6652
59.7377
59.8101
59.8419
59.8537
59.8537
59.8364
59.8021
59.7812
59.7794
59.7663
59.7370
59.7117
59.7171
59.7420
59.7718
59.8206
59.8882
59.9671
60.471
60.1034
60.1266
60.1366
60.1473
60.1530
60.1491
60.1456
60.1618
60.1328
60.1039
60.1040
60.1268
60.1457
60.1738
60.2399
60.3229
60.3776
60.3942
60.3966
60.3854
60.3361
60.2901
60.2563
60.2157
60.1635
60.1023
60.763
60.651
60.592
60.618
60.870
60.1225
60.1524
60.1616
60.1436
60.983
60.622
60.202
59.9778
59.9295
59.8883
59.8213
59.7391
59.6842
59.6538
59.6358
59.6364
59.6797
59.7489
59.8162
59.8450
59.8570
59.8622
59.8547
59.8263
59.8098
59.8041
59.7886
59.7541
59.7468
59.7615
59.7838
59.8193
59.8760
59.9521
60.271
60.923
60.1302
60.1446
60.1470
60.1469
60.1455
60.1402
60.1269
60.1202
60.782
60.551
60.618
60.836
60.1043
60.1502
60.2358
60.3194
60.3615
60.3841
60.3820
60.3627
60.3198
60.2783
60.2422
60.1940
60.1174
60.630
60.382
60.181
60.90
60.112
60.407
60.665
60.899
60.882
60.612
60.200
59.9786
59.9367
59.8944
59.8622
59.8313
59.7638
59.7039
59.6686
59.6544
59.6449
59.6556
59.7203
59.7910
59.8405
59.8544
59.8554
59.8461
59.8157
59.7900
59.7770
59.7686
59.7389
59.7092
59.7110
59.7312
59.7608
59.8083
59.8805
59.9542
60.356
60.987
60.1252
60.1295
60.1345
60.1328
60.1311
60.1214
60.1241
60.988
60.576
60.420
60.531
60.712
60.892
60.1497
60.2325
60.2989
60.3306
60.3433
60.3467
60.3085
60.2611
60.2251
60.1905
60.1391
60.672
60.266
60.112
60.8
60.76
60.288
60.647
60.1069
60.1341
60.1277
60.879
60.485
60.102
59.9677
59.9235
59.8846
59.8293
59.7592
59.6935
59.6611
59.6562
59.6560
59.6870
59.7576
59.8385
59.8758
59.9007
59.9016
59.9015
59.8739
59.8537
59.8417
59.8251
59.7888
59.7543
59.7631
59.7784
59.8052
59.8549
59.9325
60.73
60.841
60.1340
60.1515
60.1581
60.1657
60.1675
60.1660
60.1577
60.1581
60.1241
60.939
60.893
60.1088
60.1299
60.1666
60.2371
60.3212
60.3818
60.4025
60.4047
60.3900
60.3406
60.2847
60.2440
60.1942
60.1331
60.642
60.219
60.60
60.8
60.36
60.295
60.633
60.931
60.1121
60.1002
60.608
60.246
59.9798
59.9356
59.8859
59.8478
59.7882
59.7144
59.6646
59.6475
59.6410
59.6426
59.6889
59.7637
59.8331
59.8575
59.8739
59.8749
59.8492
59.8101
59.7940
59.7796
59.7552
59.7140
59.7055
59.7254
59.7482
59.7867
59.8458
59.9252
60.57
60.797
60.1272
60.1369
60.1407
60.1438
60.1391
60.1320
60.1269
60.1207
60.765
60.539
60.627
60.866
60.1031
60.1511
60.2368
60.3148
60.3609
60.3777
60.3789
60.3533
60.3138
60.2767
60.2453
60.1913
60.1279
60.732
60.491
60.374
60.235
60.270
60.498
60.730
60.968
60.945
60.680
60.230
59.9818
59.9367
59.8928
59.8490
59.8170
59.7528
59.6807
59.6382
59.6215
59.6186
59.6285
59.6952
59.7749
59.8301
59.8431
59.8541
59.8558
59.8210
59.7893
59.7750
59.7562
59.7268
59.6847
59.6792
59.6929
59.7144
59.7567
59.8199
59.9009
59.9875
60.505
60.852
60.916
60.1020
60.1084
60.1154
60.1121
60.1162
60.965
60.588
60.431
60.543
60.757
60.931
60.1538
60.2361
60.3066
60.3406
60.3466
60.3461
60.3103
60.2617
60.2236
60.1809
60.1300
60.687
60.295
60.139
60.29
60.0
60.111
60.462
60.817
60.1158
60.1131
60.752
60.369
60.16
59.9664
59.9195
59.8744
59.8187
59.7401
59.6845
59.6522
59.6428
59.6385
59.6719
59.7434
59.8223
59.8716
59.8840
59.8891
59.8835
59.8549
59.8381
59.8283
59.8127
59.7799
59.7509
59.7575
59.7802
59.8060
59.8471
59.9169
59.9949
60.674
60.1151
60.1343
60.1346
60.1421
60.1366
60.1305
60.1216
60.1213
60.915
60.492
60.455
60.569
60.706
60.960
60.1728
60.2561
60.3123
60.3347
60.3404
60.3328
60.2891
60.2381
60.2028
60.1576
60.999
60.394
60.94
59.9860
59.9689
59.9634
59.9892
60.179
60.466
60.644
60.469
60.6
59.9623
59.9185
59.8712
59.8265
59.7838
59.7305
59.6635
59.6220
59.6081
59.6048
59.6052
59.6540
59.7239
59.7931
59.8239
59.8312
59.8350
59.8164
59.7800
59.7634
59.7474
59.7312
59.6878
59.6800
59.6994
59.7204
59.7620
59.8214
59.8953
59.9754
60.520
60.999
60.1214
60.1355
60.1399
60.1488
60.1397
60.1361
60.1308
60.906
60.625
60.652
60.758
60.872
60.1272
60.2022
60.2816
60.3338
60.3482
60.3579
60.3417
60.2989
60.2625
60.2240
60.1775
60.1095
60.525
60.183
60.8
59.9950
60.100
60.440
60.771
60.1055
60.1085
60.779
60.296
59.9831
59.9339
59.8786
59.8325
59.7939
59.7185
59.6459
59.6099
59.5940
59.5860
59.5991
59.6652
59.7531
59.8188
59.8454
59.8579
59.8592
59.8340
59.8066
59.7949
59.7759
59.7461
59.7093
59.7043
59.7228
59.7495
59.7891
59.8630
59.9439
60.261
60.976
60.1369
60.1458
60.1556
60.1497
60.1419
60.1333
60.1382
60.1207
60.888
60.804
60.1109
60.1385
60.1647
60.2258
60.3136
60.3887
60.4196
60.4319
60.4279
60.3965
60.3409
60.2932
60.2479
60.1951
60.1309
60.864
60.741
60.665
60.719
60.910
60.1267
60.1575
60.1830
60.1739
60.1365
60.948
60.534
60.71
59.9566
59.9139
59.8675
59.7930
59.7292
59.7028
59.7005
59.7015
59.7237
59.7827
59.8535
59.8854
59.8945
59.8922
59.8785
59.8503
59.8253
59.8204
59.7955
59.7627
59.7445
59.7582
59.7798
59.8144
59.8660
59.9422
60.161
60.835
60.1304
60.1516
60.1492
60.1520
60.1464
60.1425
60.1342
60.1299
60.995
60.597
60.492
60.666
60.870
60.1192
60.1842
60.2659
60.3262
60.3470
60.3530
60.3420
60.2975
60.2501
60.2146
60.1686
60.1153
60.549
60.241
60.86
60.4
59.9982
60.162
60.490
60.824
60.932
60.724
60.239
59.9781
59.9353
59.8881
59.8459
59.8118
59.7526
59.6787
59.6304
59.6177
59.6194
59.6348
59.6834
59.7590
59.8362
59.8647
59.8663
59.8631
59.8505
59.8167
59.7909
59.7865
59.7672
59.7295
59.7166
59.7289
59.7556
59.7892
59.8408
59.9138
59.9864
60.547
60.1033
60.1189
60.1254
60.1344
60.1359
60.1252
60.1247
60.1198
60.906
60.680
60.710
60.916
60.1155
60.1522
60.2232
60.2929
60.3368
60.3501
60.3501
60.3289
60.2786
60.2281
60.1887
60.1512
60.862
60.298
60.114
59.9986
59.9886
59.9961
60.323
60.702
60.997
60.1067
60.824
60.326
59.9885
59.9452
59.9040
59.8610
59.8235
59.7596
59.6941
59.6536
59.6423
59.6478
59.6645
59.7216
59.7947
59.8583
59.8790
59.8835
59.8812
59.8579
59.8287
59.8184
59.8154
59.7936
59.7617
59.7637
59.7877
59.8147
59.8560
59.9147
59.9942
60.690
60.1258
60.1513
60.1552
60.1599
60.1713
60.1677
60.1621
60.1595
60.1396
60.1052
60.875
60.1046
60.1296
60.1538
60.2196
60.3056
60.3784
60.4190
60.4276
60.4233
60.3878
60.3340
60.2889
60.2442
60.1989
60.1222
60.777
60.588
60.436
60.416
60.493
60.812
60.1079
60.1331
60.1294
60.866
60.366
59.9913
59.9502
59.9017
59.8678
59.8228
59.7537
59.6998
59.6747
59.6702
59.6714
59.7006
59.7627
59.8328
59.8775
59.8856
59.8904
59.8800
59.8458
59.8104
59.7972
59.7766
59.7413
59.7182
59.7296
59.7525
59.7790
59.8244
59.9017
59.9765
60.474
60.965
60.1122
60.1150
60.1223
60.1193
60.1238
60.1148
60.1201
60.892
60.531
60.511
60.601
60.767
60.984
60.1644
60.2470
60.3044
60.3283
60.3303
60.3224
60.2777
60.2341
60.2039
60.1699
60.1153
60.512
60.205
60.27
59.9969
60.2
60.250
60.595
60.851
60.1018
60.868
60.401
59.9901
59.9427
59.8916
59.8482
59.8138
59.7496
59.6713
59.6169
59.5892
59.5742
59.5736
59.6182
59.6976
59.7692
59.7995
59.8160
59.8292
59.8165
59.7852
59.7650
59.7577
59.7347
59.6960
59.6844
59.6987
59.7210
59.7606
59.8151
59.8910
59.9683
60.423
60.886
60.1011
60.1049
60.1042
60.1044
60.1076
60.1114
60.1103
60.797
60.554
60.651
60.874
60.1154
60.1628
60.2435
60.3290
60.3799
60.3957
60.3940
60.3795
60.3282
60.2828
60.2407
60.2047
60.1404
60.860
60.615
60.514
60.456
60.517
60.824
60.1218
60.1486
60.1564
60.1290
60.825
60.399
59.9991
59.9631
59.9252
59.8840
59.8209
59.7604
59.7208
59.7114
59.7102
59.7203
59.7665
59.8423
59.8987
59.9123
59.9181
59.9169
59.8866
59.8542
59.8468
59.8302
59.8030
59.7744
59.7709
59.7943
59.8196
59.8642
59.9262
60.6
60.756
60.1348
60.1608
60.1607
60.1700
60.1765
60.1742
60.1696
60.1666
60.1362
60.948
60.759
60.860
60.1031
60.1249
60.1823
60.2616
60.3352
60.3683
60.3739
60.3704
60.3430
60.2853
60.2455
60.2129
60.1735
60.1162
60.720
60.516
60.315
60.174
60.253
60.542
60.782
60.998
60.908
60.483
60.82
59.9650
59.9211
59.8707
59.8278
59.7857
59.7177
59.6568
59.6244
59.6224
59.6182
59.6418
59.7137
59.7879
59.8378
59.8521
59.8627
59.8583
59.8260
59.8065
59.7982
59.7792
59.7455
59.7128
59.7240
59.7473
59.7744
59.8230
59.8956
59.9756
60.541
60.1112
60.1315
60.1389
60.1536
60.1617
60.1587
60.1492
60.1556
60.1277
60.1009
60.987
60.1207
60.1463
60.1760
60.2443
60.3223
60.3794
60.3930
60.3853
60.3688
60.3158
60.2660
60.2292
60.1819
60.1304
60.737
60.461
60.335
60.273
60.411
60.624
60.998
60.1276
60.1411
60.1263
60.848
60.420
59.9993
59.9557
59.9056
59.8719
59.8078
59.7342
59.6755
59.6500
59.6418
59.6363
59.6767
59.7537
59.8208
59.8507
59.8543
59.8596
59.8490
59.8100
59.7964
59.7927
59.7769
59.7432
59.7329
59.7451
59.7627
59.8041
59.8567
59.9384
60.169
60.969
60.1441
60.1597
60.1646
60.1696
60.1670
60.1625
60.1561
60.1526
60.1119
60.896
60.976
60.1177
60.1393
60.1905
60.2700
60.3607
60.4143
60.4358
60.4402
60.4250
60.3761
60.3377
60.3039
60.2563
60.1909
60.1369
60.1127
60.919
60.832
60.896
60.1172
60.1508
60.1733
60.1754
60.1456
60.1012
60.562
60.111
59.9647
59.9167
59.8799
59.8100
59.7489
59.7128
59.7080
59.7072
59.7203
59.7875
59.8672
59.9205
59.9393
59.9426
59.9430
59.9127
59.8803
59.8659
59.8474
59.8179
59.7831
59.7755
59.7870
59.8102
59.8488
59.9134
59.9883
60.652
60.1326
60.1622
60.1700
60.1806
60.1883
60.1849
60.1820
60.1888
60.1675
60.1293
60.972
60.1100
60.1215
60.1384
60.1956
60.2834
60.3540
60.3905
60.3952
60.3934
60.3540
60.3029
60.2640
60.2226
60.1718
60.1089
60.670
60.509
60.456
60.461
60.605
60.1026
60.1383
60.1647
60.1534
60.1137
60.695
60.204
59.9744
59.9231
59.8811
59.8272
59.7475
59.6837
59.6542
59.6452
59.6484
59.6772
59.7483
59.8324
59.8675
59.8854
59.8986
59.8899
59.8611
59.8397
59.8307
59.8106
59.7732
59.7415
59.7516
59.7779
59.8088
59.8600
59.9307
60.74
60.814
60.1316
60.1493
60.1573
60.1637
60.1710
60.1718
60.1590
60.1649
60.1293
60.899
60.842
60.1011
60.1176
60.1568
60.2289
60.3135
60.3723
60.3938
60.3994
60.3854
60.3330
60.2823
60.2483
60.2027
60.1394
60.643
60.273
60.56
59.9906
59.9873
60.118
60.472
60.813
60.900
60.733
60.349
60.39
59.9620
59.9117
59.8621
59.8293
59.7716
59.6992
59.6462
59.6212
59.6070
59.6122
59.6574
59.7368
59.8094
59.8399
59.8453
59.8453
59.8300
59.7987
59.7865
59.7786
59.7572
59.7168
59.7067
59.7251
59.7490
59.7931
59.8576
59.9398
60.165
60.828
60.1277
60.1382
60.1458
60.1514
60.1543
60.1467
60.1434
60.1303
60.875
60.617
60.627
60.786
60.972
60.1389
60.2168
60.2982
60.3433
60.3564
60.3587
60.3376
60.2953
60.2566
60.2145
60.1696
60.1007
60.537
60.245
60.65
59.9932
59.9962
60.274
60.607
60.842
60.887
60.573
60.117
59.9634
59.9149
59.8675
59.8224
59.7791
59.7081
59.6374
59.5978
59.5812
59.5802
59.5926
59.6491
59.7260
59.7869
59.8096
59.8254
59.8268
59.8043
59.7757
59.7592
59.7376
59.7091
59.6704
59.6649
59.6793
59.6950
59.7257
59.7861
59.8645
59.9399
60.63
60.372
60.435
60.577
60.625
60.628
60.611
60.664
60.498
60.124
59.9989
60.148
60.383
60.649
60.1284
60.2070
60.2784
60.3141
60.3183
60.3177
60.2811
60.2197
60.1807
60.1437
60.950
60.309
59.9910
59.9738
59.9587
59.9568
59.9723
60.74
60.400
60.745
60.693
60.387
59.9953
59.9610
59.9201
59.8736
59.8297
59.7783
59.7062
59.6485
59.6121
59.5955
59.5882
59.6072
59.6697
59.7445
59.7955
59.8128
59.8179
59.8090
59.7823
59.7627
59.7502
59.7391
59.7113
59.6780
59.6847
59.7097
59.7362
59.7820
59.8554
59.9350
60.76
60.671
60.902
60.942
60.963
60.1020
60.969
60.895
60.934
60.644
60.321
60.259
60.435
60.635
60.891
60.1628
60.2494
60.3235
60.3499
60.3600
60.3575
60.3223
60.2811
60.2488
60.2089
60.1535
60.917
60.539
60.373
60.311
60.380
60.605
60.976
60.1266
60.1505
60.1380
60.909
60.512
60.169
59.9761
59.9296
59.9005
59.8515
59.7820
59.7335
59.7188
59.7113
59.7155
59.7569
59.8337
59.9069
59.9371
59.9468
59.9493
59.9292
59.8975
59.8779
59.8646
59.8417
59.8027
59.7783
59.7947
59.8124
59.8475
59.8965
59.9780
60.518
60.1297
60.1748
60.1879
60.1917
60.1988
60.1982
60.1948
60.1926
60.1893
60.1528
60.1219
60.1216
60.1432
60.1584
60.1958
60.2724
60.3497
60.3860
60.4027
60.3937
60.3779
60.3264
60.2841
60.2461
60.2058
60.1394
60.838
60.588
60.450
60.417
60.465
60.755
60.1089
60.1390
60.1403
60.1129
60.693
60.301
59.9834
59.9364
59.8912
59.8497
59.7839
59.7088
59.6682
59.6528
59.6526
59.6698
59.7313
59.8107
59.8705
59.8897
59.8998
59.8981
59.8734
59.8491
59.8411
59.8238
59.7968
59.7687
59.7661
59.7837
59.8091
59.8468
59.9103
59.9893
60.642
60.1245
60.1481
60.1527
60.1602
60.1601
60.1531
60.1512
60.1617
60.1492
60.1158
60.1043
60.1224
60.1480
60.1705
60.2337
60.3224
60.3958
60.4281
60.4375
60.4311
60.3883
60.3319
60.2898
60.2443
60.1958
60.1278
60.851
