=~=~=~=~=~=~=~=~=~=~=~= PuTTY log 2025.04.24 09:01:05 =~=~=~=~=~=~=~=~=~=~=~=




Speed (Hz)
60.924
60.4884
61.228
61.2435
61.2150
61.1137
60.9529
60.8285
60.7849
60.7805
60.7848
60.7305
60.5603
60.4548
60.4639
60.4993
60.5269
60.4818
60.3871
60.3235
60.3145
60.3552
60.3751
60.2437
60.1354
60.1557
60.2226
60.2547
60.2047
60.1183
60.823
60.936
60.1212
60.1504
60.578
59.9528
59.9448
59.9989
60.749
60.925
60.152
59.9773
59.9993
60.515
60.792
59.9832
59.8862
59.8969
59.9593
60.188
60.555
60.48
59.9605
59.9575
60.45
60.782
60.185
59.8991
59.8991
59.9784
60.426
60.556
59.9875
59.9429
59.9452
59.9739
60.320
60.18
59.8869
59.8496
59.9080
59.9818
60.388
59.9865
59.9364
59.9443
59.9844
60.250
59.9828
59.8604
59.8204
59.8734
59.9385
59.9920
59.9597
59.8951
59.8644
59.8853
59.9590
59.9733
59.8531
59.7875
59.8474
59.9283
59.9603
59.9031
59.8473
59.8476
59.8789
59.9264
59.9479
59.8434
59.7617
59.7924
59.8723
59.9557
59.9476
59.8753
59.8610
59.9019
59.9574
59.9696
59.8569
59.7879
59.8356
59.9079
59.9653
59.9840
59.9383
59.9007
59.9114
59.9804
60.500
59.9542
59.8468
59.8773
59.9708
60.310
60.226
59.9429
59.9146
59.9341
59.9828
60.404
59.9815
59.8772
59.8722
59.9392
60.166
60.437
59.9729
59.9311
59.9571
60.66
60.458
59.9648
59.8488
59.8470
59.9131
59.9776
60.154
59.9702
59.9210
59.9133
59.9414
60.35
59.9662
59.8458
59.8240
59.8991
59.9634
59.9818
59.9076
59.8629
59.8753
59.9067
59.9573
59.9454
59.8372
59.7845
59.8269
59.9115
59.9855
59.9457
59.8769
59.8779
59.9291
59.9819
59.9589
59.8452
59.8046
59.8610
59.9290
59.9940
59.9894
59.9336
59.9084
59.9394
60.160
60.415
59.9228
59.8516
59.9153
59.9943
60.387
60.5
59.9282
59.9150
59.9402
59.9943
60.344
59.9403
59.8483
59.8697
59.9445
60.168
60.120
59.9435
59.9257
59.9593
60.97
60.247
59.9095
59.8116
59.8356
59.9135
59.9809
59.9962
59.9384
59.8948
59.8946
59.9422
60.50
59.9200
59.8150
59.8267
59.9085
59.9666
59.9601
59.8786
59.8439
59.8642
59.9060
59.9538
59.9097
59.8059
59.7807
59.8397
59.9206
59.9775
59.9155
59.8630
59.8812
59.9346
59.9784
59.9264
59.8077
59.7976
59.8666
59.9331
59.9907
59.9618
59.9202
59.9113
59.9501
60.335
60.190
59.8922
59.8602
59.9385
60.117
60.429
59.9821
59.9237
59.9257
59.9532
60.61
60.115
59.9115
59.8539
59.9029
59.9797
60.444
60.79
59.9465
59.9433
59.9794
60.307
60.229
59.8966
59.8302
59.8746
59.9488
60.75
60.0
59.9393
59.9055
59.9193
59.9775
60.196
59.9103
59.8227
59.8612
59.9451
59.9920
59.9588
59.8864
59.8684
59.8935
59.9379
59.9802
59.9023
59.8114
59.8160
59.8870
59.9720
59.9984
59.9244
59.8898
59.9209
59.9743
60.68
59.9179
59.8302
59.8466
59.9160
59.9806
60.203
59.9776
59.9316
59.9346
59.9919
60.642
60.37
59.8902
59.9022
59.9896
60.508
60.565
59.9843
59.9500
59.9617
59.9986
60.532
60.178
59.9094
59.8806
59.9435
60.186
60.722
60.147
59.9688
59.9823
60.182
60.632
60.117
59.8902
59.8581
59.9251
59.9903
60.378
60.4
59.9433
59.9256
59.9502
60.182
60.191
59.8952
59.8405
59.9098
59.9896
60.254
59.9584
59.8900
59.8883
59.9222
59.9739
59.9896
59.8885
59.8227
59.8560
59.9278
60.26
59.9881
59.9179
59.9058
59.9479
60.96
60.146
59.9005
59.8396
59.8873
59.9614
60.218
60.296
59.9702
59.9418
59.9671
60.391
60.903
59.9841
59.8969
59.9405
60.276
60.747
60.505
59.9828
59.9645
59.9821
60.281
60.777
60.17
59.8970
59.8986
59.9721
60.457
60.679
60.36
59.9771
60.29
60.532
60.827
59.9806
59.8753
59.8865
59.9616
60.238
60.491
59.9920
59.9433
59.9340
59.9799
60.531
60.64
59.8834
59.8701
59.9433
60.40
60.149
59.9371
59.8946
59.9105
59.9456
59.9969
59.9749
59.8671
59.8288
59.8819
59.9665
60.367
59.9839
59.9201
59.9215
59.9678
60.223
59.9904
59.8746
59.8504
59.9126
59.9790
60.437
60.302
59.9782
59.9627
59.9938
60.766
60.841
59.9551
59.9032
59.9724
60.511
60.908
60.453
59.9861
59.9788
60.81
60.613
60.883
59.9925
59.9224
59.9564
60.284
60.995
60.775
60.99
60.18
60.364
60.885
60.850
59.9598
59.8840
59.9246
59.9980
60.628
60.716
60.141
59.9767
59.9799
60.363
60.872
59.9853
59.8859
59.9128
59.9942
60.427
60.140
59.9417
59.9227
59.9453
59.9930
60.403
59.9696
59.8744
59.8681
59.9361
60.205
60.478
59.9728
59.9365
59.9639
60.201
60.609
59.9808
59.8816
59.8973
59.9716
60.340
60.756
60.324
59.9929
59.9953
60.430
60.1199
60.682
59.9465
59.9439
60.324
60.1007
60.1206
60.550
60.126
60.175
60.486
60.1067
60.772
59.9715
59.9377
59.9922
60.680
60.1259
60.747
60.285
60.337
60.698
60.1174
60.715
59.9436
59.9082
59.9708
60.439
60.942
60.538
59.9957
59.9753
59.9945
60.602
60.667
59.9487
59.8948
59.9555
60.248
60.591
60.20
59.9404
59.9448
59.9766
60.226
60.356
59.9296
59.8539
59.8830
59.9553
60.423
60.303
59.9594
59.9468
59.9871
60.433
60.502
59.9382
59.8764
59.9163
59.9835
60.520
60.696
60.176
59.9824
59.9981
60.669
60.1267
60.277
59.9374
59.9767
60.596
60.1105
60.913
60.230
59.9946
60.112
60.624
60.1140
60.414
59.9464
59.9478
60.182
60.937
60.1092
60.403
60.104
60.355
60.837
60.1186
60.227
59.9114
59.9164
59.9924
60.516
60.782
60.244
59.9747
59.9727
60.132
60.864
60.350
59.9110
59.9022
59.9815
60.428
60.487
59.9696
59.9311
59.9480
59.9819
60.286
60.37
59.8945
59.8526
59.9087
59.9963
60.668
60.154
59.9502
59.9635
60.185
60.692
60.308
59.9126
59.8886
59.9554
60.244
60.856
60.602
60.18
59.9876
60.248
60.997
60.1028
59.9789
59.9307
60.36
60.897
60.1296
60.768
60.183
60.107
60.366
60.937
60.1126
60.91
59.9405
59.9782
60.497
60.1232
60.897
60.198
60.166
60.571
60.1057
60.1046
59.9765
59.8991
59.9433
60.221
60.856
60.762
60.139
59.9835
59.9953
60.471
60.883
59.9809
59.8886
59.9284
60.131
60.598
60.307
59.9496
59.9346
59.9670
60.91
60.442
59.9663
59.8720
59.8699
59.9405
60.276
60.525
59.9743
59.9351
59.9647
60.208
60.589
59.9701
59.8714
59.8845
59.9618
60.284
60.728
60.302
59.9841
59.9864
60.386
60.1155
60.578
59.9391
59.9431
60.340
60.1007
60.1111
60.383
59.9917
60.34
60.395
60.935
60.662
59.9645
59.9307
59.9831
60.638
60.1146
60.550
60.36
60.124
60.550
60.1021
60.541
59.9280
59.8971
59.9588
60.237
60.791
60.444
59.9871
59.9674
59.9885
60.552
60.551
59.9329
59.8790
59.9410
60.172
60.501
59.9901
59.9320
59.9318
59.9558
60.67
60.209
59.9248
59.8520
59.8794
59.9600
60.464
60.314
59.9642
59.9543
59.9894
60.414
60.461
59.9332
59.8740
59.9192
59.9929
60.601
60.661
60.130
59.9817
60.62
60.767
60.1268
60.252
59.9371
59.9772
60.638
60.1143
60.977
60.303
60.67
60.253
60.736
60.1203
60.481
59.9573
59.9576
60.303
60.1105
60.1260
60.576
60.275
60.557
60.1012
60.1343
60.352
59.9259
59.9400
60.87
60.686
60.982
60.461
60.22
59.9942
60.334
60.1025
60.473
59.9276
59.9218
60.50
60.659
60.748
59.9917
59.9486
59.9634
60.22
60.564
60.245
59.9152
59.8798
59.9344
60.169
60.810
60.252
59.9698
59.9806
60.283
60.758
60.381
59.9275
59.9055
59.9682
60.327
60.969
60.764
60.247
60.107
60.444
60.1208
60.1148
59.9900
59.9557
60.313
60.1090
60.1399
60.849
60.246
60.200
60.533
60.1094
60.1230
60.215
59.9564
59.9911
60.633
60.1309
60.1070
60.468
60.430
60.770
60.1225
60.1118
59.9875
59.9233
59.9733
60.416
60.970
60.909
60.315
59.9925
60.55
60.690
60.1068
59.9981
59.9112
59.9519
60.351
60.782
60.405
59.9679
59.9561
59.9812
60.192
60.585
59.9783
59.8858
59.8917
59.9666
60.501
60.658
59.9912
59.9606
59.9965
60.489
60.799
59.9864
59.8986
59.9162
59.9850
60.511
60.909
60.429
59.9998
60.41
60.707
60.1443
60.730
59.9559
59.9676
60.588
60.1220
60.1300
60.597
60.225
60.331
60.703
60.1287
60.884
59.9778
59.9550
60.135
60.894
60.1377
60.788
60.314
60.428
60.854
60.1326
60.748
59.9481
59.9284
59.9977
60.606
60.1089
60.676
60.119
59.9934
60.193
60.851
60.727
59.9462
59.9033
59.9704
60.421
60.752
60.80
59.9493
59.9547
59.9888
60.417
60.385
59.9300
59.8722
59.9107
59.9882
60.630
60.304
59.9624
59.9587
60.40
60.607
60.534
59.9366
59.8867
59.9410
60.127
60.757
60.773
60.247
59.9936
60.145
60.902
60.1280
60.90
59.9323
59.9843
60.704
60.1204
60.938
60.234
60.9
60.227
60.789
60.1265
60.390
59.9456
59.9590
60.321
60.1043
60.978
60.215
60.2
60.287
60.735
60.989
59.9963
59.8940
59.9178
59.9912
60.543
60.734
60.164
59.9712
59.9673
60.63
60.724
59.9922
59.8741
59.8832
59.9636
60.265
60.235
59.9427
59.9025
59.9211
59.9605
60.108
59.9676
59.8634
59.8327
59.8906
59.9745
60.282
59.9699
59.9183
59.9310
59.9844
60.331
59.9744
59.8633
59.8617
59.9294
59.9870
60.417
60.135
59.9589
59.9415
59.9845
60.671
60.632
59.9390
59.8984
59.9731
60.489
60.861
60.342
59.9790
59.9755
60.9
60.587
60.657
59.9600
59.8986
59.9367
60.131
60.821
60.464
59.9796
59.9783
60.177
60.665
60.570
59.9333
59.8706
59.9131
59.9849
60.510
60.389
59.9751
59.9426
59.9510
60.111
60.494
59.9393
59.8469
59.8825
59.9695
60.189
59.9834
59.9097
59.8983
59.9203
59.9668
60.128
59.9300
59.8382
59.8453
59.9165
59.9961
60.115
59.9340
59.9016
59.9319
59.9826
60.173
59.9323
59.8428
59.8622
59.9320
59.9973
60.391
59.9999
59.9582
59.9618
60.147
60.884
60.222
59.9016
59.9080
59.9935
60.564
60.671
60.5
59.9670
59.9814
60.165
60.677
60.375
59.9353
59.9074
59.9615
60.347
60.805
60.213
59.9700
59.9811
60.229
60.668
60.147
59.8906
59.8689
59.9387
60.87
60.635
60.236
59.9614
59.9345
59.9584
60.258
60.274
59.9052
59.8505
59.9165
59.9913
60.273
59.9692
59.9059
59.9051
59.9403
59.9978
60.84
59.9060
59.8412
59.8755
59.9497
60.280
60.84
59.9351
59.9201
59.9636
60.197
60.244
59.9129
59.8620
59.9104
59.9823
60.450
60.521
60.53
59.9784
59.9975
60.618
60.1120
60.62
59.9195
59.9663
60.506
60.988
60.732
60.40
59.9870
60.122
60.593
60.1060
60.325
59.9373
59.9455
60.219
60.1030
60.1143
60.369
60.75
60.296
60.752
60.1047
60.72
59.9055
59.9178
59.9888
60.553
60.862
60.305
59.9837
59.9748
60.165
60.874
60.273
59.8980
59.8878
59.9690
60.321
60.367
59.9576
59.9219
59.9392
59.9721
60.251
59.9981
59.8898
59.8538
59.9146
59.9930
60.493
59.9935
59.9375
59.9447
59.9886
60.357
59.9947
59.8825
59.8593
59.9219
59.9943
60.582
60.377
59.9868
59.9736
60.102
60.850
60.798
59.9527
59.9125
59.9854
60.579
60.941
60.454
59.9871
59.9815
60.103
60.616
60.771
59.9738
59.9068
59.9420
60.206
60.916
60.659
60.19
59.9953
60.281
60.793
60.744
59.9491
59.8760
59.9157
59.9901
60.520
60.475
59.9848
59.9466
59.9601
60.227
60.711
59.9666
59.8705
59.9047
59.9818
60.255
60.7
59.9283
59.9095
59.9330
59.9726
60.133
59.9407
59.8493
59.8509
59.9214
60.40
60.299
59.9601
59.9239
59.9510
60.39
60.384
59.9494
59.8603
59.8738
59.9398
60.35
60.502
60.90
59.9643
59.9669
60.200
60.1024
60.491
59.9270
59.9249
60.64
60.708
60.867
60.202
59.9761
59.9814
60.195
60.812
60.543
59.9409
59.9015
59.9632
60.458
60.1002
60.441
59.9882
59.9974
60.404
60.857
60.377
59.9132
59.8785
59.9418
60.112
60.606
60.222
59.9659
59.9426
59.9689
60.412
60.446
59.9176
59.8573
59.9220
59.9919
60.223
59.9662
59.9128
59.9163
59.9421
59.9865
60.38
59.9052
59.8331
59.8598
59.9321
60.109
59.9910
59.9155
59.9094
59.9504
60.93
60.126
59.8973
59.8350
59.8871
59.9595
60.181
60.357
59.9838
59.9476
59.9616
60.257
60.853
59.9859
59.8891
59.9315
60.179
60.703
60.516
59.9797
59.9591
59.9812
60.282
60.757
60.79
59.9042
59.9021
59.9727
60.474
60.650
59.9957
59.9611
59.9863
60.345
60.705
59.9751
59.8649
59.8710
59.9401
60.32
60.367
59.9876
59.9428
59.9290
59.9571
60.228
59.9724
59.8523
59.8409
59.9229
59.9890
59.9942
59.9127
59.8735
59.8878
59.9262
59.9764
59.9533
59.8451
59.8029
59.8550
59.9324
59.9991
59.9527
59.8893
59.8988
59.9510
60.42
59.9725
59.8584
59.8289
59.8889
59.9572
60.224
60.84
59.9507
59.9293
59.9581
60.347
60.522
59.9296
59.8695
59.9345
60.138
60.548
60.123
59.9548
59.9468
59.9734
60.217
60.561
59.9646
59.8864
59.9106
59.9796
60.510
60.367
59.9659
59.9542
59.9840
60.254
60.372
59.9253
59.8439
59.8803
59.9510
60.69
60.201
59.9625
59.9249
59.9268
59.9701
60.298
59.9448
59.8325
59.8508
59.9361
59.9920
59.9768
59.8973
59.8725
59.8984
59.9460
59.9922
59.9304
59.8249
59.8092
59.8723
59.9506
59.9896
59.9240
59.8772
59.9008
59.9574
60.29
59.9394
59.8378
59.8398
59.9140
59.9864
60.400
59.9976
59.9446
59.9418
59.9921
60.710
60.344
59.9097
59.8892
59.9715
60.381
60.652
60.18
59.9545
59.9628
59.9970
60.560
60.516
59.9444
59.8945
59.9454
60.243
60.848
60.394
59.9802
59.9818
60.164
60.626
60.350
59.9164
59.8694
59.9204
59.9920
60.461
60.235
59.9647
59.9390
59.9545
60.185
60.484
59.9293
59.8459
59.8973
59.9787
60.198
59.9706
59.9005
59.8971
59.9305
59.9774
60.116
59.9241
59.8408
59.8617
59.9314
60.154
60.167
59.9418
59.9181
59.9545
60.114
60.357
59.9360
59.8529
59.8877
59.9610
60.266
60.564
60.134
59.9750
59.9852
60.458
60.1127
60.273
59.9208
59.9457
60.303
60.842
60.773
60.87
59.9756
59.9922
60.382
60.990
60.470
59.9421
59.9277
59.9864
60.632
60.996
60.367
59.9954
60.87
60.538
60.982
60.299
59.9071
59.8944
59.9626
60.323
60.744
60.286
59.9781
59.9608
59.9931
60.668
60.421
59.9197
59.8890
59.9563
60.249
60.486
59.9736
59.9219
59.9371
59.9741
60.214
60.112
59.8992
59.8431
59.8949
59.9816
60.559
60.60
59.9398
59.9439
59.9921
60.462
60.316
59.9164
59.8713
59.9268
59.9922
60.559
60.522
59.9937
59.9691
60.1
60.777
60.1031
59.9841
59.9208
59.9835
60.689
60.1084
60.700
60.41
59.9896
60.129
60.630
60.995
60.133
59.9361
59.9599
60.319
60.1029
60.953
60.262
60.112
60.382
60.853
60.1034
59.9902
59.8966
59.9265
59.9956
60.586
60.739
60.140
59.9684
59.9608
60.141
60.799
59.9994
59.8877
59.8987
59.9810
60.431
60.277
59.9459
59.9199
59.9449
59.9857
60.289
59.9801
59.8799
59.8615
59.9249
60.28
60.483
59.9836
59.9354
59.9582
60.79
60.469
59.9855
59.8801
59.8781
59.9458
60.144
60.722
60.379
59.9958
59.9871
60.277
60.1061
60.771
59.9510
59.9280
60.104
60.830
60.1099
60.446
59.9934
59.9957
60.301
60.910
60.902
59.9770
59.9208
59.9702
60.501
60.1128
60.693
60.81
60.95
60.477
60.967
60.718
59.9474
59.8954
59.9492
60.202
60.816
60.612
60.11
59.9688
59.9819
60.452
60.693
59.9477
59.8707
59.9137
59.9951
60.420
59.9968
59.9276
59.9190
59.9456
59.9878
60.225
59.9392
59.8540
59.8677
59.9375
60.183
60.213
59.9469
59.9204
59.9511
60.86
60.337
59.9312
59.8507
59.8841
59.9594
60.219
60.463
59.9956
59.9609
59.9749
60.367
60.1037
60.153
59.9094
59.9311
60.126
60.739
60.788
60.75
59.9724
59.9867
60.312
60.849
60.315
59.9277
59.9137
59.9778
60.527
60.842
60.217
59.9802
59.9923
60.377
60.762
60.96
59.8851
59.8712
59.9407
60.60
60.543
60.113
59.9555
59.9355
59.9651
60.374
60.139
59.8875
59.8537
59.9297
59.9996
60.201
59.9471
59.8910
59.9006
59.9367
59.9939
59.9911
59.8821
59.8256
59.8674
59.9431
60.248
59.9905
59.9210
59.9196
59.9644
60.150
60.74
59.8953
59.8494
59.9039
59.9751
60.401
60.312
59.9762
59.9547
59.9813
60.576
60.953
59.9811
59.9058
59.9639
60.466
60.977
60.645
59.9984
59.9856
60.54
60.518
60.915
60.80
59.9252
59.9442
60.148
60.895
60.907
60.232
59.9989
60.291
60.790
60.993
59.9906
59.8917
59.9163
59.9927
60.598
60.774
60.95
59.9670
59.9717
60.202
60.818
60.48
59.8950
59.9041
59.9852
60.421
60.332
59.9567
59.9287
59.9441
59.9893
60.434
59.9950
59.8883
59.8649
59.9193
60.19
60.576
59.9935
59.9381
59.9562
60.62
60.536
59.9969
59.8891
59.8839
59.9513
60.177
60.712
60.368
59.9901
59.9844
60.273
60.1110
60.854
59.9602
59.9340
60.131
60.845
60.1116
60.461
59.9927
59.9977
60.325
60.898
60.837
59.9779
59.9257
59.9789
60.546
60.1166
60.693
60.53
60.101
60.496
60.934
60.728
59.9426
59.8818
59.9314
60.51
60.630
60.502
59.9878
59.9591
59.9689
60.347
60.737
59.9589
59.8725
59.9168
59.9970
60.426
59.9991
59.9269
59.9179
59.9471
59.9930
60.239
59.9342
59.8432
59.8550
59.9284
60.117
60.248
59.9551
59.9285
59.9604
60.107
60.381
59.9384
59.8543
59.8842
59.9557
60.218
60.583
60.96
59.9719
59.9779
60.400
60.1131
60.368
59.9216
59.9360
60.207
60.778
60.774
60.63
59.9738
59.9903
60.314
60.871
60.420
59.9351
59.9177
59.9815
60.620
60.1092
60.460
59.9931
60.60
60.477
60.923
60.207
59.8988
59.8884
59.9573
60.274
60.679
60.179
59.9623
59.9486
59.9757
60.522
60.341
59.9086
59.8661
59.9383
60.136
60.370
59.9689
59.9139
59.9221
59.9526
59.9975
59.9981
59.8971
59.8406
59.8812
59.9590
60.384
60.33
59.9369
59.9284
59.9653
60.183
60.133
59.9003
59.8515
59.9097
59.9820
60.492
60.538
60.3
59.9697
59.9898
60.604
60.994
59.9896
59.9130
59.9680
60.517
60.1014
60.702
59.9965
59.9826
60.73
60.559
60.969
60.160
59.9240
59.9441
60.165
60.919
60.944
60.224
59.9983
60.236
60.746
60.969
59.9900
59.8914
59.9047
59.9784
60.457
60.746
60.160
59.9689
59.9687
60.86
60.717
59.9974
59.8827
59.8894
59.9706
60.262
60.247
59.9505
59.9142
59.9353
59.9722
60.248
59.9828
59.8713
59.8476
59.9140
59.9975
60.500
59.9851
59.9353
59.9566
60.64
60.527
59.9960
59.8849
59.8703
59.9293
59.9993
60.604
60.276
59.9818
59.9723
60.163
60.995
60.849
59.9661
59.9353
60.52
60.783
60.1118
60.517
59.9956
59.9886
60.218
60.823
60.869
59.9804
59.9188
59.9678
60.529
60.1275
60.871
60.199
60.152
60.507
60.983
60.815
59.9548
59.8921
59.9386
60.52
60.672
60.618
60.32
59.9684
59.9771
60.423
60.756
59.9600
59.8805
59.9354
60.159
60.526
60.93
59.9377
59.9284
59.9548
59.9970
60.386
59.9574
59.8658
59.8677
59.9365
60.242
60.384
59.9641
59.9351
59.9731
60.312
60.581
59.9579
59.8748
59.9048
59.9800
60.383
60.652
60.120
59.9759
59.9830
60.446
60.1202
60.461
59.9340
59.9490
60.391
60.973
60.1048
60.331
59.9994
60.90
60.455
60.995
60.576
59.9574
59.9311
59.9934
60.724
60.1136
60.507
60.109
60.292
60.743
60.1124
60.466
59.9265
59.9089
59.9719
60.350
60.838
60.439
59.9848
59.9660
59.9907
60.618
60.447
59.9170
59.8784
59.9471
60.169
60.402
59.9771
59.9260
59.9280
59.9674
60.214
60.201
59.9118
59.8583
59.9007
59.9748
60.471
60.134
59.9489
59.9438
59.9908
60.476
60.380
59.9215
59.8756
59.9327
59.9996
60.594
60.593
60.68
59.9831
60.63
60.837
60.1212
60.49
59.9247
59.9777
60.642
60.1121
60.795
60.143
59.9980
60.237
60.714
60.1061
60.215
59.9402
59.9528
60.224
60.996
60.1010
60.268
60.7
60.290
60.791
60.1027
59.9910
59.8949
59.9209
60.8
60.706
60.872
60.298
59.9823
59.9809
60.281
60.911
60.144
59.8972
59.8997
59.9817
60.389
60.326
59.9567
59.9294
59.9537
59.9916
60.402
59.9939
59.8906
59.8645
59.9224
60.32
60.518
59.9892
59.9418
59.9540
60.53
60.535
59.9975
59.8888
59.8826
59.9517
60.173
60.770
60.465
59.9935
59.9783
60.234
60.1033
60.856
59.9628
59.9302
60.78
60.788
