=~=~=~=~=~=~=~=~=~=~=~= PuTTY log 2025.04.16 15:20:19 =~=~=~=~=~=~=~=~=~=~=~=




Speed (Hz)
60.2560
60.2403
60.3457
60.4601
60.4998
60.4784
60.4096
60.3589
60.3310
60.3272
60.3470
60.3210
60.2314
60.1708
60.1750
60.1986
60.2127
60.1737
60.1239
60.1011
60.1022
60.1074
60.576
59.9273
59.8518
59.8652
59.9002
59.9298
59.9225
59.8904
59.8517
59.8309
59.8547
59.8669
59.7808
59.7081
59.7367
59.8108
59.8487
59.8313
59.8030
59.7973
59.8097
59.8477
59.8877
59.8586
59.8093
59.8105
59.8746
59.9564
59.9955
59.9788
59.9767
60.135
60.682
60.975
60.344
59.9795
60.13
60.614
60.1248
60.1768
60.1788
60.1617
60.1547
60.1997
60.2458
60.1900
60.1174
60.1406
60.2173
60.2617
60.2564
60.2111
60.1869
60.1807
60.1988
60.2219
60.1720
60.870
60.593
60.893
60.1277
60.1305
60.767
60.355
60.334
60.472
60.488
59.9633
59.8467
59.8081
59.8470
59.8867
59.9124
59.8984
59.8698
59.8398
59.8436
59.8837
59.8622
59.7695
59.7342
59.7993
59.8692
59.8906
59.8510
59.8225
59.8285
59.8536
59.8953
59.9101
59.8528
59.8141
59.8497
59.9260
60.43
60.165
59.9992
60.103
60.628
60.1149
60.1091
60.303
59.9979
60.418
60.1061
60.1752
60.2105
60.2036
60.1842
60.1980
60.2500
60.2611
60.1752
60.1264
60.1782
60.2457
60.2705
60.2402
60.1976
60.1750
60.1728
60.1973
60.2104
60.1396
60.652
60.640
60.994
60.1365
60.1184
60.709
60.453
60.524
60.698
60.544
59.9347
59.8283
59.8150
59.8565
59.8921
59.9077
59.8862
59.8509
59.8252
59.8464
59.8878
59.8285
59.7365
59.7376
59.8112
59.8668
59.8747
59.8346
59.8221
59.8386
59.8721
59.9201
59.9135
59.8641
59.8566
59.9079
59.9851
60.397
60.287
60.187
60.424
60.995
60.1384
60.939
60.230
60.232
60.800
60.1461
60.2096
60.2198
60.2038
60.1913
60.2245
60.2893
60.2672
60.1760
60.1618
60.2345
60.2944
60.3047
60.2547
60.2148
60.1968
60.2037
60.2328
60.2165
60.1282
60.700
60.891
60.1271
60.1465
60.1076
60.587
60.393
60.481
60.606
60.118
59.8878
59.8218
59.8393
59.8836
59.9151
59.9135
59.8836
59.8461
59.8313
59.8665
59.8816
59.7914
59.7267
59.7667
59.8455
59.8851
59.8589
59.8263
59.8213
59.8424
59.8830
59.9143
59.8769
59.8286
59.8433
59.9088
59.9869
60.219
60.77
60.53
60.495
60.1066
60.1266
60.531
60.70
60.368
60.966
60.1586
60.2048
60.2001
60.1803
60.1750
60.2185
60.2640
60.2011
60.1253
60.1519
60.2256
60.2652
60.2536
60.2119
60.1846
60.1727
60.1907
60.2249
60.1779
60.904
60.635
60.939
60.1263
60.1273
60.768
60.394
60.344
60.487
60.529
59.9617
59.8388
59.7955
59.8312
59.8744
59.9011
59.8822
59.8488
59.8137
59.8147
59.8567
59.8379
59.7478
59.7208
59.7872
59.8500
59.8721
59.8321
59.8147
59.8267
59.8551
59.8933
59.9051
59.8514
59.8212
59.8562
59.9260
60.6
60.25
59.9786
59.9930
60.437
60.972
60.824
60.21
59.9838
60.362
60.982
60.1621
60.1930
60.1911
60.1746
60.1952
60.2513
60.2604
60.1750
60.1291
60.1822
60.2506
60.2741
60.2372
60.1946
60.1709
60.1618
60.1879
60.1980
60.1207
60.525
60.511
60.865
60.1233
60.1034
60.527
60.252
60.318
60.496
60.312
59.9147
59.8217
59.8226
59.8642
59.9026
59.9159
59.8835
59.8379
59.8093
59.8332
59.8659
59.7981
59.7157
59.7243
59.7988
59.8461
59.8432
59.8045
59.7967
59.8149
59.8480
59.9012
59.8878
59.8360
59.8326
59.8899
59.9627
60.134
59.9971
59.9892
60.189
60.710
60.1101
60.612
59.9906
60.21
60.667
60.1293
60.1873
60.2034
60.1836
60.1704
60.2032
60.2597
60.2281
60.1401
60.1327
60.2020
60.2583
60.2685
60.2292
60.1983
60.1815
60.1919
60.2225
60.2025
60.1099
60.530
60.678
60.1132
60.1272
60.872
60.449
60.315
60.378
60.465
59.9910
59.8650
59.8037
59.8297
59.8759
59.9128
59.9123
59.8793
59.8377
59.8260
59.8621
59.8732
59.7883
59.7318
59.7748
59.8507
59.8860
59.8610
59.8304
59.8348
59.8564
59.8972
59.9271
59.8773
59.8294
59.8457
59.9107
59.9864
60.126
59.9931
59.9959
60.413
60.991
60.1138
60.411
59.9974
60.379
60.1067
60.1734
60.2144
60.2097
60.1867
60.1873
60.2388
60.2784
60.2082
60.1352
60.1637
60.2323
60.2674
60.2518
60.2024
60.1745
60.1674
60.1867
60.2161
60.1627
60.734
60.558
60.922
60.1255
60.1223
60.640
60.237
60.213
60.322
60.307
59.9380
59.8262
59.7935
59.8306
59.8706
59.8974
59.8742
59.8385
59.8054
59.8058
59.8433
59.8104
59.7136
59.6866
59.7483
59.8097
59.8264
59.7906
59.7710
59.7830
59.8127
59.8628
59.8799
59.8244
59.7927
59.8334
59.9070
59.9781
59.9759
59.9512
59.9617
60.78
60.556
60.415
59.9660
59.9411
59.9937
60.573
60.1246
60.1560
60.1502
60.1374
60.1547
60.2124
60.2212
60.1287
60.878
60.1446
60.2092
60.2316
60.1927
60.1517
60.1328
60.1351
60.1675
60.1744
60.927
60.129
60.126
60.510
60.778
60.527
60.10
59.9756
59.9810
59.9954
59.9712
59.8535
59.7660
59.7619
59.8067
59.8427
59.8585
59.8340
59.8026
59.7776
59.7924
59.8241
59.7624
59.6765
59.6803
59.7579
59.8179
59.8134
59.7708
59.7542
59.7679
59.8049
59.8530
59.8395
59.7845
59.7769
59.8368
59.9189
59.9765
59.9669
59.9507
59.9794
60.375
60.774
60.315
59.9613
59.9687
60.327
60.994
60.1534
60.1654
60.1515
60.1413
60.1743
60.2299
60.2009
60.1072
60.941
60.1633
60.2191
60.2278
60.1826
60.1426
60.1266
60.1396
60.1783
60.1607
60.743
60.240
60.474
60.878
60.1035
60.601
60.105
59.9921
59.9996
60.131
59.9614
59.8362
59.7637
59.7762
59.8170
59.8541
59.8550
59.8190
59.7809
59.7739
59.8168
59.8348
59.7450
59.6789
59.7154
59.7940
59.8345
59.8118
59.7802
59.7787
59.8014
59.8450
59.8820
59.8440
59.7912
59.8025
59.8739
59.9516
59.9864
59.9663
59.9626
60.34
60.522
60.681
59.9955
59.9455
59.9776
60.420
60.1075
60.1650
60.1711
60.1511
60.1513
60.1951
60.2416
60.1815
60.1059
60.1280
60.2032
60.2407
60.2238
60.1746
60.1434
60.1294
60.1431
60.1730
60.1238
60.356
60.75
60.424
60.810
60.899
60.362
59.9932
59.9925
60.114
60.164
59.9293
59.8078
59.7707
59.8089
59.8520
59.8796
59.8672
59.8345
59.7972
59.7942
59.8362
59.8209
59.7274
59.6908
59.7508
59.8199
59.8401
59.8000
59.7739
59.7839
59.8151
59.8644
59.8882
59.8391
59.7978
59.8314
59.9123
59.9873
59.9994
59.9833
59.9924
60.438
60.902
60.787
60.22
59.9749
60.200
60.825
60.1431
60.1764
60.1723
60.1490
60.1575
60.2129
60.2318
60.1454
60.925
60.1397
60.2181
60.2491
60.2151
60.1702
60.1466
60.1436
60.1665
60.1826
60.1158
60.357
60.299
60.614
60.913
60.752
60.271
59.9921
59.9903
60.27
59.9817
59.8668
59.7651
59.7560
59.7963
59.8312
59.8520
59.8352
59.8011
59.7729
59.7918
59.8381
59.7862
59.6942
59.6941
59.7742
59.8255
59.8311
59.7883
59.7728
59.7867
59.8217
59.8665
59.8562
59.7932
59.7741
59.8261
59.9097
59.9729
59.9649
59.9516
59.9788
60.352
60.836
60.444
59.9688
59.9651
60.248
60.889
60.1531
60.1739
60.1621
60.1552
60.1870
60.2440
60.2236
60.1291
60.1096
60.1768
60.2261
60.2343
60.1897
60.1561
60.1387
60.1413
60.1704
60.1620
60.806
60.260
60.387
60.782
60.1077
60.714
60.243
60.121
60.248
60.340
59.9842
59.8622
59.7842
59.7876
59.8277
59.8654
59.8717
59.8393
59.7994
59.7794
59.8072
59.8300
59.7486
59.6779
59.7110
59.7830
59.8229
59.8101
59.7826
59.7790
59.7919
59.8363
59.8812
59.8477
59.7963
59.8048
59.8707
59.9525
59.9911
59.9728
59.9648
60.26
60.565
60.775
60.165
59.9592
59.9738
60.430
60.1090
60.1595
60.1645
60.1453
60.1441
60.1870
60.2389
60.1885
60.1128
60.1320
60.2089
60.2569
60.2429
60.1923
60.1668
60.1579
60.1710
60.1991
60.1551
60.649
60.278
60.531
60.911
60.959
60.434
60.34
59.9993
60.171
60.235
59.9434
59.8223
59.7779
59.8167
59.8583
59.8891
59.8788
59.8524
59.8212
59.8200
59.8547
59.8455
59.7529
59.7114
59.7743
59.8441
59.8698
59.8319
59.8052
59.8117
59.8357
59.8789
59.9016
59.8519
59.8140
59.8473
59.9215
59.9943
60.131
59.9946
60.39
60.523
60.1092
60.1076
60.301
60.50
60.548
60.1197
60.1777
60.2136
60.2084
60.1909
60.2019
60.2585
60.2734
60.1855
60.1320
60.1826
60.2562
60.2838
60.2531
60.2095
60.1850
60.1867
60.2168
60.2345
60.1697
60.958
60.862
60.1223
60.1564
60.1409
60.857
60.514
60.515
60.702
60.629
59.9510
59.8495
59.8315
59.8662
59.9066
59.9234
59.8918
59.8467
59.8235
59.8467
59.8899
59.8402
59.7471
59.7456
59.8218
59.8776
59.8872
59.8514
59.8384
59.8529
59.8899
59.9381
59.9225
59.8670
59.8543
59.9018
59.9771
60.401
60.261
60.96
60.338
60.857
60.1321
60.922
60.205
60.241
60.852
60.1431
60.2039
60.2248
60.2109
60.2019
60.2326
60.2926
60.2676
60.1780
60.1635
60.2323
60.2923
60.3013
60.2497
60.2063
60.1855
60.1926
60.2223
60.2042
60.1129
60.516
60.631
60.1051
60.1304
60.936
60.508
60.310
60.450
60.582
60.53
59.8853
59.8157
59.8309
59.8774
59.9097
59.9019
59.8664
59.8278
59.8192
59.8525
59.8677
59.7847
59.7172
59.7560
59.8315
59.8674
59.8462
59.8074
59.8015
59.8193
59.8560
59.8923
59.8573
59.8061
59.8223
59.8942
59.9757
60.111
59.9965
59.9979
60.394
60.950
60.1151
60.418
59.9801
60.36
60.644
60.1230
60.1684
60.1705
60.1503
60.1499
60.2009
60.2538
60.1937
60.1205
60.1466
60.2244
60.2604
60.2477
60.2039
60.1759
60.1695
60.1901
60.2186
60.1715
60.787
60.452
60.778
60.1204
60.1295
60.789
60.374
60.315
60.496
60.505
59.9576
59.8402
59.8054
59.8411
59.8795
59.9016
59.8833
59.8513
59.8179
59.8198
59.8644
59.8547
59.7621
59.7317
59.7980
59.8693
59.8912
59.8516
59.8248
59.8292
59.8527
59.8961
59.9093
59.8521
59.8152
59.8482
59.9262
60.38
60.192
60.31
60.206
60.753
60.1271
60.1163
60.333
60.86
60.559
60.1205
60.1832
60.2133
60.2098
60.1910
60.2086
60.2666
60.2788
60.1921
60.1441
60.1961
60.2620
60.2785
60.2436
60.1968
60.1737
60.1693
60.1889
60.1968
60.1240
60.524
60.557
60.1014
60.1337
60.1093
60.646
60.399
60.501
60.666
60.506
59.9338
59.8266
59.8155
59.8566
59.9009
59.9221
59.8892
59.8453
59.8170
59.8359
59.8762
59.8243
59.7388
59.7422
59.8185
59.8688
59.8652
59.8285
59.8190
59.8322
59.8651
59.9097
59.8992
59.8474
59.8412
59.8983
59.9794
60.345
60.263
60.156
60.452
60.1028
60.1426
60.981
60.234
60.204
60.751
60.1339
60.1969
60.2100
60.1994
60.1931
60.2301
60.2927
60.2689
60.1835
60.1775
60.2509
60.3092
60.3143
60.2709
60.2351
60.2107
60.2235
60.2601
60.2419
60.1459
60.902
60.1085
60.1497
60.1697
60.1263
60.829
60.703
60.803
60.912
60.300
59.9061
59.8370
59.8603
59.9034
59.9404
59.9398
59.9072
59.8669
59.8570
59.8979
59.9127
59.8297
59.7732
59.8151
59.8883
59.9195
59.8890
59.8509
59.8474
59.8687
59.9097
59.9444
59.8982
59.8490
59.8669
59.9406
60.228
60.499
60.343
60.398
60.813
60.1319
60.1479
60.727
60.208
60.549
60.1181
60.1829
60.2319
60.2316
60.2087
60.2049
60.2588
60.2984
60.2280
60.1619
60.1928
60.2654
60.2999
60.2802
60.2367
60.2095
60.2046
60.2285
60.2491
60.1886
60.1017
60.793
60.1181
60.1638
60.1582
60.1043
60.702
60.714
60.894
60.812
59.9801
59.8583
59.8292
59.8660
59.9053
59.9358
59.9128
59.8720
59.8456
59.8541
59.8977
59.8660
59.7772
59.7611
59.8302
59.8969
59.9103
59.8668
59.8441
59.8547
59.8867
59.9382
59.9501
59.8895
59.8611
59.9057
59.9826
60.518
60.503
60.294
60.468
60.991
60.1426
60.1186
60.422
60.270
60.759
60.1362
60.2034
60.2340
60.2300
60.2183
60.2374
60.2936
60.2929
60.2027
60.1713
60.2324
60.2917
60.3080
60.2683
60.2213
60.2014
60.2035
60.2291
60.2257
60.1410
60.754
60.817
60.1186
60.1433
60.1129
60.667
60.431
60.495
60.687
60.399
59.9155
59.8269
59.8387
59.8818
59.9143
59.9243
59.8954
59.8525
59.8259
59.8546
59.8858
59.8115
59.7279
59.7423
59.8175
59.8634
59.8502
59.8117
59.8043
59.8202
59.8539
59.8993
59.8807
59.8262
59.8207
59.8831
59.9714
60.201
59.9967
59.9862
60.222
60.748
60.1024
60.434
59.9825
59.9959
60.534
60.1178
60.1730
60.1833
60.1590
60.1429
60.1808
60.2407
60.2066
60.1178
60.1200
60.1935
60.2442
60.2444
60.2025
60.1660
60.1553
60.1712
60.2072
60.1769
60.804
60.324
60.559
60.933
60.1035
60.614
60.218
60.103
60.181
60.266
59.9578
59.8348
59.7786
59.8049
59.8446
59.8776
59.8726
59.8410
59.8109
59.8039
59.8437
59.8490
59.7599
59.7054
59.7498
59.8288
59.8624
59.8358
59.8015
59.7988
59.8206
59.8630
59.8920
59.8410
59.7957
59.8210
59.8908
59.9773
59.9998
59.9780
59.9781
60.212
60.756
60.868
60.127
59.9740
60.120
60.744
60.1394
60.1821
60.1805
60.1626
60.1665
60.2168
60.2554
60.1773
60.1102
60.1461
60.2187
60.2442
60.2208
60.1730
60.1516
60.1431
60.1651
60.1926
60.1324
60.434
60.231
60.572
60.868
60.862
60.412
60.93
60.93
60.262
60.207
59.9149
59.8027
59.7760
59.8180
59.8581
59.8800
59.8581
59.8259
59.7976
59.8059
59.8439
59.8109
59.7131
59.6875
59.7534
59.8164
59.8335
59.7969
59.7819
59.7946
59.8283
59.8778
59.8856
59.8311
59.8081
59.8495
59.9228
59.9889
59.9923
59.9758
59.9933
60.417
60.866
60.663
59.9861
59.9717
60.235
60.883
60.1512
60.1781
60.1680
60.1433
60.1615
60.2277
60.2351
60.1502
60.1155
60.1740
60.2331
60.2536
60.2170
60.1799
60.1559
60.1567
60.1853
60.1876
60.1070
60.423
60.436
60.758
60.1040
60.736
60.186
59.9903
59.9939
60.122
59.9883
59.8720
59.7815
59.7826
59.8277
59.8637
59.8736
59.8499
59.8215
59.8025
59.8233
59.8486
59.7726
59.6925
59.7114
59.7904
59.8382
59.8296
59.7879
59.7767
59.7907
59.8295
59.8749
59.8566
59.8024
59.7932
59.8523
59.9352
59.9902
59.9788
59.9659
59.9983
60.533
60.934
60.395
59.9751
59.9862
60.522
60.1191
60.1789
60.1946
60.1730
60.1622
60.1998
60.2525
60.2131
60.1236
60.1185
60.1934
60.2445
60.2440
60.1955
60.1644
60.1541
60.1651
60.1947
60.1682
60.852
60.449
60.714
60.1144
60.1268
60.825
60.372
60.235
60.387
60.494
59.9811
59.8476
59.7848
59.8130
59.8563
59.8897
59.8784
59.8410
59.8019
59.7924
59.8329
59.8440
59.7583
59.7010
59.7495
59.8255
59.8577
59.8321
59.7990
59.7934
59.8140
59.8582
59.8908
59.8500
59.8036
59.8226
59.8903
59.9675
59.9936
59.9732
59.9755
60.173
60.696
60.795
60.52
59.9596
59.9942
60.571
60.1253
60.1770
60.1770
60.1596
60.1701
60.2266
60.2682
60.2009
60.1270
60.1562
60.2278
60.2622
60.2441
60.1974
60.1676
60.1575
60.1762
60.2023
60.1421
60.530
60.276
60.621
60.990
60.1011
60.536
60.203
60.132
60.276
60.273
59.9341
59.8242
59.8014
59.8399
59.8733
59.9047
59.8867
59.8502
59.8179
59.8302
59.8753
59.8373
59.7421
59.7232
59.7908
59.8539
59.8637
59.8256
59.8060
59.8160
59.8451
59.8929
59.9056
59.8525
59.8302
59.8731
59.9456
60.143
60.160
60.68
60.300
60.819
60.1259
60.1031
60.249
60.114
60.662
60.1310
60.1886
60.2092
60.2020
60.1883
60.2053
60.2624
60.2653
60.1804
60.1422
60.2016
60.2672
60.2855
60.2455
60.2126
60.1985
60.1983
60.2201
60.2186
60.1423
60.742
60.801
60.1230
60.1528
60.1285
60.784
60.488
60.539
60.668
60.317
59.9057
59.8201
59.8239
59.8635
59.9007
59.9118
59.8900
59.8523
59.8305
59.8590
59.8939
59.8265
59.7499
59.7698
59.8480
59.8919
59.8820
59.8414
59.8353
59.8497
59.8787
59.9192
59.8936
59.8325
59.8328
59.8954
59.9723
60.220
60.93
59.9966
60.314
60.903
60.1252
60.723
60.24
60.135
60.807
60.1447
60.2021
60.2104
60.1931
60.1824
60.2186
60.2776
60.2409
60.1547
60.1520
60.2230
60.2724
60.2721
60.2216
60.1818
60.1607
60.1708
60.2026
60.1736
60.867
60.412
60.676
60.1054
60.1184
60.741
60.380
60.291
60.419
60.505
59.9882
59.8636
59.8050
59.8298
59.8681
59.8968
59.8888
59.8555
59.8197
59.8144
59.8516
59.8545
59.7620
59.7085
59.7568
59.8294
59.8616
59.8332
59.8052
59.8089
59.8331
59.8727
59.9002
59.8518
59.8123
59.8381
59.9124
59.9956
60.212
60.44
60.67
60.466
60.994
60.1047
60.272
59.9874
60.254
60.892
60.1536
60.1952
60.1939
60.1806
60.1872
60.2386
60.2758
60.2008
60.1352
60.1720
60.2466
60.2850
60.2658
60.2225
60.2013
60.1977
60.2147
60.2394
60.1778
60.900
60.707
60.1032
60.1340
60.1210
60.714
60.382
60.436
60.598
60.493
59.9454
59.8388
59.8195
59.8597
59.9021
59.9206
59.8942
59.8621
59.8302
59.8435
59.8855
59.8439
59.7511
59.7383
59.8097
59.8717
59.8824
59.8418
59.8247
59.8328
59.8619
59.9022
59.9041
59.8449
59.8212
59.8631
59.9374
60.94
60.99
59.9968
60.204
60.747
60.1188
60.864
60.122
60.80
60.618
60.1253
60.1911
60.2107
60.1966
60.1785
60.2048
60.2633
60.2594
60.1657
60.1348
60.1980
60.2539
60.2679
60.2327
60.1982
60.1761
60.1774
60.2032
60.1957
60.1203
60.597
60.645
60.1023
60.1294
60.974
60.521
60.332
60.402
60.575
60.209
59.8876
59.7995
59.8076
59.8525
59.8850
59.8868
59.8560
59.8181
59.7939
59.8227
59.8505
59.7784
59.7037
59.7293
59.8087
59.8571
59.8494
59.8143
59.8052
59.8197
59.8542
59.8967
59.8724
59.8257
59.8293
59.8917
59.9692
60.93
59.9937
59.9868
60.223
60.758
60.1056
60.419
59.9757
59.9936
60.568
60.1206
60.1792
60.1902
60.1715
60.1614
60.2056
60.2616
60.2186
60.1344
60.1403
60.2142
60.2672
60.2674
60.2101
60.1726
60.1564
60.1679
60.1955
60.1574
60.661
60.309
60.561
60.932
60.1091
60.628
60.177
60.89
60.229
60.266
59.9537
59.8286
59.7796
59.8087
59.8475
59.8779
59.8623
59.8252
59.7917
59.7886
59.8291
59.8328
59.7381
59.6894
59.7445
59.8144
59.8366
59.8032
59.7782
59.7781
59.7934
59.8310
59.8603
59.8170
59.7787
59.8076
59.8827
59.9657
59.9886
59.9731
59.9780
60.223
60.754
60.839
60.133
59.9705
60.40
60.688
60.1299
60.1694
60.1591
60.1360
60.1408
60.1972
60.2335
60.1564
60.929
60.1333
60.2090
60.2450
60.2264
60.1776
60.1451
60.1385
60.1648
60.1922
60.1311
60.447
60.209
60.567
60.959
60.898
60.418
60.84
60.65
60.173
60.88
59.9090
59.7982
59.7757
59.8168
59.8552
59.8694
59.8417
59.8036
59.7706
59.7838
59.8284
59.7991
59.7086
59.6911
59.7602
59.8251
59.8362
59.7948
59.7708
59.7775
59.8038
59.8497
59.8531
59.7943
59.7668
59.8080
59.8851
59.9535
59.9537
59.9388
59.9570
60.95
60.564
60.345
59.9561
59.9384
59.9890
60.531
60.1194
60.1521
60.1493
60.1328
60.1557
60.2178
60.2226
60.1294
60.933
60.1541
60.2179
60.2373
60.1882
60.1430
60.1195
60.1184
60.1451
60.1493
60.649
59.9928
60.27
60.511
60.815
60.601
60.118
59.9910
59.9948
60.79
59.9788
59.8575
59.7634
59.7625
59.8067
59.8469
59.8604
59.8321
59.7913
59.7698
59.7946
59.8252
59.7574
59.6757
59.6948
59.7682
59.8156
59.8095
59.7736
59.7655
59.7791
59.8146
59.8673
59.8496
59.7935
59.7928
59.8539
59.9402
59.9970
59.9857
59.9717
60.54
60.621
60.977
60.376
59.9681
59.9764
60.429
60.1084
60.1667
60.1820
60.1713
60.1592
60.1928
60.2479
60.2204
60.1407
60.1394
60.2131
60.2684
60.2690
60.2233
60.1920
60.1753
60.1904
60.2257
60.1978
60.1049
60.566
60.804
60.1228
60.1424
60.979
60.544
60.429
60.512
60.580
59.9918
59.8667
59.8080
59.8285
59.8690
59.9037
59.9023
59.8755
59.8408
59.8329
59.8730
59.8819
59.7961
59.7425
59.7927
59.8637
59.8942
59.8568
59.8239
59.8277
59.8453
59.8822
59.9125
59.8690
59.8280
59.8453
59.9189
60.58
60.323
60.159
60.203
60.624
60.1178
60.1287
60.479
60.2
60.392
60.1123
60.1795
60.2225
60.2171
60.1955
60.2024
60.2537
60.2878
60.2128
60.1432
