=~=~=~=~=~=~=~=~=~=~=~= PuTTY log 2025.04.24 08:53:03 =~=~=~=~=~=~=~=~=~=~=~=




Speed (Hz)
59.9987
59.9856
59.9780
59.9960
60.348
60.649
60.843
60.1171
60.1820
60.2483
60.3199
60.3624
60.3796
60.3879
60.3944
60.3941
60.3882
60.3830
60.3831
60.3453
60.2954
60.2631
60.2324
60.1817
60.1545
60.1926
60.2561
60.3053
60.3250
60.3466
60.3515
60.3129
60.2716
60.2527
60.2308
60.1805
60.1300
60.1077
60.783
60.377
60.121
60.322
60.620
60.974
60.1310
60.1402
60.1315
60.1238
60.1132
60.995
60.830
60.847
60.634
60.150
59.9685
59.9351
59.8923
59.8537
59.8731
59.9379
60.36
60.340
60.574
60.821
60.625
60.244
60.18
59.9883
59.9547
59.8988
59.8734
59.8576
59.8335
59.8076
59.8171
59.8571
59.8995
59.9400
59.9631
59.9675
59.9721
59.9766
59.9752
59.9717
59.9789
59.9818
59.9421
59.9035
59.8817
59.8545
59.8140
59.8148
59.8759
59.9499
59.9994
60.312
60.656
60.727
60.379
60.159
60.92
59.9885
59.9417
59.9075
59.8950
59.8660
59.8359
59.8304
59.8629
59.9041
59.9510
59.9863
59.9960
59.9968
59.9920
59.9909
59.9836
59.9780
59.9888
59.9617
59.9111
59.8705
59.8418
59.8012
59.7749
59.8130
59.8851
59.9418
59.9672
59.9943
60.139
59.9915
59.9626
59.9536
59.9428
59.9068
59.8652
59.8492
59.8355
59.8080
59.7914
59.8141
59.8576
59.9009
59.9450
59.9640
59.9690
59.9726
59.9792
59.9797
59.9770
59.9839
59.9732
59.9338
59.8984
59.8793
59.8475
59.8107
59.8327
59.8995
59.9707
60.84
60.430
60.734
60.647
60.280
60.105
60.61
59.9819
59.9341
59.9114
59.8974
59.8693
59.8436
59.8487
59.8866
59.9239
59.9747
60.44
60.87
60.96
60.75
60.45
59.9947
59.9939
59.9940
59.9582
59.9145
59.8836
59.8517
59.8104
59.8023
59.8570
59.9337
59.9835
60.60
60.327
60.394
60.106
59.9832
59.9745
59.9577
59.9115
59.8722
59.8563
59.8405
59.8136
59.8022
59.8364
59.8816
59.9320
59.9708
59.9888
59.9939
59.9924
59.9949
59.9900
59.9867
59.9944
59.9702
59.9280
59.8976
59.8818
59.8470
59.8239
59.8666
59.9407
60.65
60.412
60.763
60.1031
60.824
60.453
60.320
60.172
59.9821
59.9355
59.9205
59.9060
59.8733
59.8533
59.8740
59.9123
59.9538
59.9966
60.227
60.236
60.218
60.182
60.139
60.64
60.105
59.9993
59.9590
59.9155
59.8833
59.8494
59.8080
59.8202
59.8840
59.9581
59.9944
60.159
60.435
60.430
60.91
59.9899
59.9834
59.9629
59.9176
59.8882
59.8759
59.8538
59.8284
59.8276
59.8640
59.9067
59.9549
59.9832
59.9917
59.9991
60.33
60.63
60.25
60.64
60.139
59.9820
59.9441
59.9259
59.9051
59.8656
59.8560
59.9107
59.9870
60.414
60.710
60.1077
60.1235
60.974
60.652
60.597
60.437
60.17
59.9636
59.9501
59.9297
59.8967
59.8845
59.9149
59.9540
60.3
60.413
60.575
60.576
60.579
60.616
60.583
60.535
60.611
60.364
59.9922
59.9459
59.9135
59.8752
59.8430
59.8711
59.9427
60.93
60.334
60.659
60.911
60.751
60.426
60.287
60.169
59.9842
59.9354
59.9101
59.8967
59.8698
59.8483
59.8684
59.9136
59.9587
60.53
60.270
60.313
60.413
60.461
60.464
60.403
60.456
60.372
59.9943
59.9550
59.9341
59.9041
59.8637
59.8787
59.9473
60.243
60.702
60.1081
60.1443
60.1424
60.1089
60.917
60.836
60.578
60.63
59.9774
59.9651
59.9346
59.9052
59.9096
59.9445
59.9851
60.377
60.682
60.771
60.768
60.747
60.682
60.595
60.566
60.580
60.242
59.9752
59.9387
59.9086
59.8676
59.8548
59.9063
59.9809
60.315
60.559
60.820
60.953
60.679
60.400
60.286
60.103
59.9641
59.9238
59.9087
59.8912
59.8676
59.8551
59.8834
59.9279
59.9746
60.106
60.277
60.344
60.392
60.401
60.386
60.341
60.433
60.211
59.9762
59.9484
59.9291
59.8981
59.8710
59.9085
59.9818
60.497
60.858
60.1213
60.1501
60.1314
60.971
60.839
60.716
60.348
59.9855
59.9685
59.9531
59.9220
59.9005
59.9152
59.9537
59.9967
60.420
60.649
60.649
60.621
60.609
60.557
60.469
60.510
60.476
60.62
59.9608
59.9278
59.8953
59.8535
59.8596
59.9212
59.9948
60.267
60.490
60.767
60.743
60.433
60.227
60.131
59.9952
59.9456
59.9158
59.9039
59.8820
59.8581
59.8569
59.8931
59.9375
59.9860
60.144
60.226
60.270
60.307
60.296
60.247
60.235
60.314
59.9998
59.9598
59.9415
59.9182
59.8794
59.8694
59.9221
59.9983
60.560
60.845
60.1228
60.1385
60.1077
60.826
60.743
60.564
60.100
59.9717
59.9596
59.9366
59.9027
59.8889
59.9150
59.9532
59.9986
60.379
60.536
60.507
60.469
60.447
60.385
60.317
60.401
60.177
59.9703
59.9306
59.8994
59.8617
59.8299
59.8607
59.9312
59.9959
60.251
60.496
60.740
60.576
60.186
60.79
59.9945
59.9635
59.9150
59.8950
59.8827
59.8582
59.8352
59.8505
59.8915
59.9340
59.9809
60.23
60.35
60.102
60.118
60.120
60.62
60.146
60.135
59.9763
59.9414
59.9223
59.8954
59.8580
59.8700
59.9385
60.106
60.532
60.865
60.1196
60.1176
60.848
60.614
60.516
60.305
59.9821
59.9526
59.9418
59.9153
59.8872
59.8895
59.9264
59.9662
60.150
60.476
60.569
60.579
60.564
60.543
60.459
60.416
60.443
60.117
59.9671
59.9324
59.9055
59.8660
59.8518
59.8990
59.9771
60.320
60.554
60.852
60.1003
60.726
60.413
60.272
60.130
59.9689
59.9231
59.9088
59.8918
59.8673
59.8525
59.8798
59.9224
59.9684
60.69
60.254
60.294
60.348
60.347
60.364
60.315
60.391
60.213
59.9729
59.9432
59.9232
59.8935
59.8652
59.9006
59.9751
60.428
60.780
60.1079
60.1346
60.1155
60.805
60.668
60.533
60.218
59.9779
59.9618
59.9484
59.9174
59.8935
59.9099
59.9476
59.9912
60.396
60.620
60.659
60.627
60.582
60.541
60.444
60.442
60.355
59.9935
59.9508
59.9215
59.8948
59.8519
59.8595
59.9254
60.6
60.344
60.566
60.849
60.793
60.440
60.204
60.84
59.9877
59.9443
59.9130
59.9029
59.8859
59.8637
59.8684
59.9062
59.9539
60.42
60.352
60.437
60.438
60.466
60.450
60.369
60.319
60.357
60.41
59.9618
59.9429
59.9216
59.8867
59.8764
59.9321
60.61
60.592
60.906
60.1223
60.1378
60.1088
60.785
60.684
60.560
60.128
59.9778
59.9673
59.9514
59.9210
59.9110
59.9416
59.9814
60.304
60.717
60.828
60.789
60.691
60.619
60.539
60.448
60.523
60.311
59.9869
59.9465
59.9185
59.8844
59.8496
59.8819
59.9589
60.260
60.552
60.777
60.1014
60.828
60.479
60.322
60.213
59.9916
59.9442
59.9198
59.9124
59.8903
59.8705
59.8873
59.9302
59.9772
60.248
60.464
60.473
60.519
60.521
60.489
60.398
60.412
60.344
59.9969
59.9615
59.9458
59.9228
59.8883
59.8995
59.9670
60.402
60.801
60.1149
60.1484
60.1468
60.1104
60.890
60.759
60.532
60.41
59.9775
59.9694
59.9445
59.9164
59.9192
59.9551
59.9928
60.373
60.638
60.681
60.603
60.549
60.525
60.423
60.409
60.430
60.109
59.9659
59.9328
59.9022
59.8638
59.8516
59.8993
59.9723
60.252
60.472
60.739
60.862
60.564
60.190
60.54
59.9903
59.9501
59.9104
59.8944
59.8828
59.8621
59.8560
59.8892
59.9348
59.9842
60.181
60.323
60.323
60.368
60.371
60.331
60.219
60.272
60.107
59.9711
59.9378
59.9217
59.8913
59.8625
59.8968
59.9679
60.369
60.698
60.994
60.1240
60.1066
60.667
60.533
60.428
60.129
59.9639
59.9475
59.9332
59.9031
59.8786
59.8949
59.9328
59.9719
60.164
60.367
60.335
60.296
60.273
60.184
60.113
60.132
60.81
59.9685
59.9257
59.8967
59.8686
59.8252
59.8353
59.8959
59.9688
60.79
60.312
60.597
60.571
60.221
59.9967
59.9888
59.9649
59.9156
59.8800
59.8673
59.8489
59.8232
59.8217
59.8551
59.8933
59.9392
59.9696
59.9794
59.9816
59.9818
59.9842
59.9813
59.9835
59.9935
59.9628
59.9198
59.8959
59.8761
59.8380
59.8189
59.8681
59.9445
60.28
60.347
60.701
60.919
60.631
60.295
60.197
60.64
59.9674
59.9230
59.9125
59.8929
59.8584
59.8413
59.8688
59.9098
59.9561
59.9971
60.160
60.154
60.126
60.63
59.9945
59.9820
59.9920
59.9700
59.9302
59.8882
59.8600
59.8260
59.7906
59.8133
59.8829
59.9519
59.9797
60.44
60.310
60.187
59.9871
59.9722
59.9645
59.9433
59.8939
59.8709
59.8601
59.8388
59.8136
59.8245
59.8660
59.9125
59.9595
59.9880
59.9941
60.6
60.39
60.37
59.9955
59.9985
59.9970
59.9645
59.9285
59.9129
59.8883
59.8496
59.8558
59.9197
59.9933
60.423
60.725
60.1013
60.1054
60.689
60.439
60.337
60.152
59.9664
59.9382
59.9272
59.9018
59.8696
59.8659
59.8993
59.9375
59.9861
60.205
60.312
60.303
60.250
60.218
60.140
60.71
60.152
59.9878
59.9418
59.9055
59.8764
59.8376
59.8172
59.8565
59.9287
59.9838
60.78
60.315
60.474
60.244
59.9898
59.9769
59.9632
59.9260
59.8803
59.8624
59.8473
59.8222
59.8044
59.8264
59.8696
59.9157
59.9550
59.9737
59.9747
59.9811
59.9849
59.9820
59.9777
59.9839
59.9722
59.9328
59.9017
59.8823
59.8519
59.8188
59.8386
59.9094
59.9829
60.220
60.528
60.828
60.750
60.371
60.214
60.122
59.9855
59.9355
59.9128
59.9023
59.8763
59.8532
59.8609
59.8964
59.9348
59.9816
60.116
60.181
60.184
60.179
60.152
60.113
60.126
60.119
59.9783
59.9348
59.9008
59.8674
59.8261
59.8185
59.8741
59.9493
59.9918
60.147
60.416
60.496
60.199
59.9935
59.9837
59.9679
59.9256
59.8910
59.8799
59.8649
59.8386
59.8294
59.8631
59.9038
59.9521
59.9866
60.10
60.55
60.104
60.173
60.168
60.142
60.239
60.11
59.9550
59.9280
59.9115
59.8782
59.8567
59.8962
59.9704
60.355
60.688
60.1043
60.1290
60.1072
60.715
60.601
60.459
60.127
59.9685
59.9550
59.9408
59.9104
59.8904
59.9113
59.9485
59.9867
60.314
60.498
60.509
60.502
60.520
60.459
60.418
60.460
60.375
59.9969
59.9525
59.9238
59.8851
59.8480
59.8595
59.9282
59.9975
60.258
60.491
60.778
60.678
60.316
60.136
60.53
59.9883
59.9403
59.9138
59.9032
59.8839
59.8586
59.8624
59.8989
59.9395
59.9859
60.110
60.136
60.208
60.225
60.214
60.187
60.213
60.257
59.9890
59.9521
59.9322
59.9078
59.8734
59.8677
59.9268
60.13
60.512
60.806
60.1146
60.1234
60.939
60.701
60.611
60.436
60.0
59.9660
59.9473
59.9269
59.8930
59.8799
59.9127
59.9492
59.9933
60.301
60.441
60.428
60.384
60.362
60.296
60.256
60.304
60.51
59.9638
59.9213
59.8947
59.8546
59.8269
59.8567
59.9282
59.9934
60.158
60.423
60.675
60.482
60.148
60.30
59.9894
59.9589
59.9133
59.8910
59.8802
59.8561
59.8359
59.8531
59.8950
59.9393
59.9829
60.59
60.111
60.197
60.236
60.219
60.167
60.202
60.146
59.9723
59.9401
59.9264
59.8979
59.8608
59.8795
59.9453
60.188
60.630
60.968
60.1308
60.1267
60.886
60.690
60.600
60.373
59.9854
59.9604
59.9482
59.9168
59.8883
59.8923
59.9262
59.9609
60.93
60.367
60.456
60.460
60.443
60.399
60.360
60.337
60.350
59.9997
59.9554
59.9169
59.8878
59.8437
59.8311
59.8816
59.9570
60.61
60.292
60.567
60.693
60.410
60.108
60.0
59.9858
59.9433
59.9049
59.8928
59.8764
59.8486
59.8368
59.8640
59.9057
59.9553
59.9922
60.79
60.160
60.181
60.212
60.156
60.103
60.217
60.5
59.9581
59.9281
59.9073
59.8756
59.8491
59.8872
59.9580
60.272
60.606
60.945
60.1240
60.1019
60.680
60.536
60.419
60.104
59.9608
59.9432
59.9281
59.8954
59.8720
59.8886
59.9221
59.9641
60.129
60.332
60.318
60.328
60.276
60.210
60.135
60.123
60.35
59.9669
59.9206
59.8878
59.8537
59.8124
59.8200
59.8816
59.9578
59.9910
60.126
60.386
60.405
60.23
59.9821
59.9728
59.9500
59.9020
59.8745
59.8629
59.8431
59.8178
59.8176
59.8534
59.8970
59.9471
59.9756
59.9850
59.9871
59.9927
59.9949
59.9863
59.9872
59.9936
59.9643
59.9242
59.9002
59.8806
59.8437
59.8341
59.8845
59.9588
60.161
60.484
60.879
60.1017
60.726
60.444
60.359
60.201
59.9783
59.9391
59.9292
59.9124
59.8821
59.8702
59.9027
59.9438
59.9899
60.285
60.412
60.355
60.318
60.264
60.220
60.162
60.269
60.108
59.9656
59.9264
59.9016
59.8647
59.8319
59.8591
59.9302
59.9983
60.228
60.475
60.731
60.566
60.215
60.64
59.9939
59.9647
59.9197
59.8991
59.8899
59.8700
59.8494
59.8666
59.9088
59.9559
59.9976
60.217
60.250
60.280
60.301
60.309
60.257
60.307
60.312
59.9970
59.9622
59.9432
59.9186
59.8821
59.8954
59.9601
60.333
60.753
60.1068
60.1383
60.1348
60.977
60.748
60.677
60.451
59.9980
59.9706
59.9605
59.9383
59.9093
59.9082
59.9433
59.9825
60.310
60.611
60.672
60.656
60.615
60.548
60.448
60.420
60.453
60.182
59.9702
59.9349
59.9064
59.8684
59.8515
59.9003
59.9764
60.317
60.545
60.771
60.930
60.583
60.251
60.122
59.9935
59.9539
59.9117
59.8989
59.8849
59.8614
59.8487
59.8792
59.9246
59.9710
60.107
60.291
60.325
60.353
60.352
60.314
60.257
60.340
60.166
59.9760
59.9434
59.9259
59.8953
59.8627
59.8963
59.9688
60.366
60.733
60.1048
60.1340
60.1107
60.779
60.612
60.488
60.160
59.9677
59.9517
59.9392
59.9107
59.8873
59.9041
59.9423
59.9823
60.271
60.511
60.504
60.504
60.504
60.443
60.361
60.377
60.294
59.9922
59.9515
59.9234
59.8912
59.8518
59.8580
59.9194
59.9951
60.351
60.556
60.832
60.825
60.483
60.224
60.115
59.9934
59.9440
59.9122
59.9022
59.8827
59.8608
59.8569
59.8931
59.9323
59.9793
60.44
60.140
60.180
60.196
60.230
60.171
60.204
60.296
60.50
59.9687
59.9482
59.9288
59.8970
59.8869
59.9374
60.128
60.659
60.945
60.1260
60.1425
60.1111
60.806
60.686
60.541
60.150
59.9744
59.9650
59.9501
59.9207
59.9083
59.9361
59.9760
60.191
60.600
60.758
60.709
60.640
60.605
60.543
60.477
60.542
60.381
59.9962
59.9559
59.9288
59.8925
59.8568
59.8844
59.9548
60.201
60.509
60.742
60.1020
60.853
60.503
60.333
60.228
59.9949
59.9482
59.9291
59.9212
59.9020
59.8838
59.8955
59.9338
59.9737
60.162
60.356
60.379
60.391
60.407
60.406
60.341
60.411
60.388
59.9987
59.9655
59.9494
59.9259
59.8945
59.9092
59.9742
60.474
60.904
60.1204
60.1532
60.1521
60.1141
60.920
60.823
60.631
60.144
59.9894
59.9799
59.9554
59.9281
59.9268
59.9620
60.23
60.507
60.788
60.819
60.769
60.673
60.627
60.509
60.456
60.515
60.226
59.9814
59.9484
59.9234
59.8865
59.8720
59.9217
59.9969
60.513
60.706
60.986
60.1127
60.869
60.547
60.435
60.294
59.9920
59.9491
59.9376
59.9249
59.9023
59.8887
59.9183
59.9592
60.61
60.440
60.566
60.557
60.584
60.609
60.582
60.563
60.680
60.561
60.209
59.9984
59.9822
59.9530
59.9276
59.9581
60.293
60.974
60.1292
60.1554
60.1795
60.1604
60.1229
60.1095
60.968
60.672
60.193
60.28
59.9898
59.9629
59.9406
59.9565
59.9959
60.354
60.814
60.1060
60.1045
60.1032
60.1003
60.955
60.894
60.944
60.884
60.477
60.31
59.9748
59.9409
59.9013
59.9076
59.9731
60.411
60.787
60.1061
60.1300
60.1263
60.923
60.750
60.706
60.548
60.83
59.9793
59.9667
59.9480
59.9213
59.9203
59.9605
59.9996
60.471
60.719
60.792
60.861
60.905
60.909
60.876
60.904
60.976
60.692
60.304
60.131
59.9930
59.9547
59.9448
59.9984
60.730
60.1249
60.1500
60.1808
60.1936
60.1610
60.1331
60.1233
60.1088
60.651
60.291
60.172
59.9973
59.9692
59.9598
59.9857
60.221
60.674
60.1032
60.1139
60.1104
60.1028
60.1034
60.972
60.942
60.1024
60.834
60.414
60.15
59.9737
59.9350
59.9056
59.9385
60.86
60.707
60.929
60.1185
60.1366
60.1125
60.765
60.646
60.529
60.229
59.9741
59.9601
59.9493
59.9251
59.9071
59.9252
59.9623
60.47
60.450
60.645
60.663
60.702
60.691
60.652
60.597
60.655
60.620
60.198
59.9879
59.9694
59.9437
59.9081
59.9221
59.9877
60.576
60.936
60.1218
60.1510
60.1445
60.1063
60.878
60.757
60.540
60.74
59.9876
59.9796
59.9543
59.9285
59.9334
59.9708
60.88
60.538
60.800
60.838
60.795
60.743
60.685
60.600
60.586
60.609
60.279
59.9835
59.9506
59.9253
59.8857
59.8782
59.9322
60.61
60.525
60.748
60.997
60.1098
60.826
60.535
60.454
60.285
59.9857
59.9492
59.9354
59.9201
59.8941
59.8838
59.9147
59.9609
60.70
60.413
60.534
60.515
60.529
60.519
60.464
60.467
60.581
60.357
59.9942
59.9694
59.9529
59.9246
59.9015
59.9428
60.188
60.818
60.1149
60.1454
60.1705
60.1462
60.1151
60.1052
60.937
60.572
60.130
59.9973
59.9782
59.9473
59.9290
59.9522
59.9942
60.392
60.845
60.1050
60.1009
60.989
60.945
60.881
60.823
60.846
60.736
60.316
59.9896
59.9601
59.9248
59.8822
59.8958
59.9655
60.376
60.720
60.935
60.1207
60.1144
60.779
60.607
60.517
60.334
59.9867
59.9609
59.9510
59.9315
59.9030
59.9109
59.9495
59.9926
60.427
60.666
60.700
60.721
60.756
60.779
60.707
60.728
60.751
60.429
60.45
59.9888
59.9651
59.9306
59.9288
59.9881
60.603
60.1078
60.1381
60.1678
60.1751
60.1389
60.1093
60.970
60.761
60.302
59.9998
59.9870
59.9678
59.9413
59.9327
59.9605
59.9959
60.418
60.782
60.838
60.810
60.760
60.721
60.672
60.628
60.725
60.460
60.39
59.9637
59.9357
59.8956
59.8708
59.9095
59.9812
60.421
60.652
60.866
60.1070
60.872
60.555
60.458
60.360
60.48
59.9578
59.9370
59.9218
59.8954
59.8741
59.8958
59.9344
59.9781
60.189
60.414
60.486
60.562
60.649
60.614
60.618
60.692
60.599
60.210
59.9891
59.9729
59.9400
59.9014
59.9197
59.9907
60.630
60.1007
60.1319
60.1649
60.1595
60.1248
60.1097
60.1002
60.774
60.277
60.44
59.9928
59.9625
59.9360
59.9412
59.9759
60.145
60.621
60.886
60.882
60.863
60.839
60.813
60.729
60.743
60.782
60.422
59.9953
59.9612
59.9321
59.8908
59.8833
59.9391
60.169
60.586
60.813
60.1057
60.1133
60.812
60.564
60.489
60.341
59.9891
59.9553
59.9438
59.9255
59.9027
59.8975
59.9310
59.9755
60.195
60.544
60.713
60.737
60.742
60.750
60.714
60.662
60.748
60.536
60.128
59.9878
59.9703
59.9349
59.9151
59.9597
60.350
60.987
60.1301
60.1644
60.1873
60.1654
60.1346
60.1235
60.1081
60.688
60.234
60.53
59.9878
59.9541
59.9348
59.9546
59.9941
60.384
60.832
60.1012
60.988
60.983
60.955
60.904
60.802
60.852
60.713
60.274
59.9833
59.9554
59.9208
59.8805
59.9007
59.9656
60.376
60.735
60.965
60.1237
60.1166
60.825
60.647
60.522
60.267
59.9764
59.9498
59.9371
59.9154
59.8937
59.8996
59.9377
59.9839
60.348
60.607
60.695
60.794
60.836
60.829
60.760
60.751
60.720
60.351
59.9964
59.9733
59.9479
59.9089
59.9130
59.9791
60.564
60.1045
60.1352
60.1742
60.1798
60.1485
60.1210
60.1092
60.891
60.411
60.44
59.9917
59.9702
59.9396
59.9343
59.9690
60.83
60.602
60.956
60.1055
60.1010
60.983
60.905
60.844
60.787
60.862
60.583
60.85
59.9712
59.9386
59.8972
59.8722
59.9136
59.9921
60.501
60.773
60.1080
60.1271
60.1032
60.776
60.670
60.525
60.149
59.9668
59.9491
59.9317
59.9030
59.8858
59.9114
59.9546
60.16
60.480
60.678
60.725
60.789
60.836
60.802
60.734
60.808
60.654
60.259
59.9935
59.9735
59.9397
59.9098
59.9378
60.138
60.820
60.1194
60.1519
60.1821
60.1676
60.1331
60.1190
60.1084
60.783
60.285
60.77
59.9970
59.9655
59.9392
59.9499
59.9895
60.284
60.811
60.1087
60.1098
60.1056
60.999
60.902
60.796
60.788
60.730
60.324
59.9897
59.9592
59.9264
59.8825
59.8856
59.9462
60.235
60.614
60.828
60.1088
60.1070
60.744
60.511
60.410
60.212
59.9744
59.9416
59.9313
59.9111
59.8826
59.8793
59.9140
59.9548
60.53
60.348
60.442
60.496
60.522
60.534
60.501
60.488
60.563
60.242
59.9796
59.9568
59.9345
59.8983
59.8852
59.9367
60.150
60.771
60.1067
60.1408
60.1589
60.1302
60.982
60.870
60.718
60.302
59.9890
59.9773
59.9614
59.9308
59.9160
59.9393
59.9791
60.227
60.616
60.804
60.807
60.802
60.771
60.689
60.591
60.685
60.483
59.9990
59.9564
59.9249
59.8870
59.8550
59.8813
59.9546
60.251
60.555
60.828
60.1087
60.953
