=~=~=~=~=~=~=~=~=~=~=~= PuTTY log 2025.04.24 08:57:31 =~=~=~=~=~=~=~=~=~=~=~=




Speed (Hz)
60.1208
60.824
60.1317
60.2339
60.3042
60.3141
60.2376
60.1511
60.1370
60.1567
60.1948
60.2115
60.1087
60.232
60.402
60.1119
60.1896
60.1837
60.1084
60.814
60.1162
60.1730
60.1872
60.732
59.9885
60.181
60.817
60.1390
60.1621
60.1100
60.680
60.810
60.1475
60.2131
60.1229
60.193
60.477
60.1321
60.1843
60.1784
60.976
60.640
60.757
60.1202
60.1684
60.1043
60.15
59.9920
60.621
60.1465
60.1762
60.1048
60.645
60.878
60.1330
60.1718
60.857
59.9608
59.9530
60.156
60.811
60.1193
60.682
60.118
59.9991
60.365
60.1168
60.821
59.9588
59.9283
60.1
60.692
60.767
59.9989
59.9463
59.9548
59.9869
60.345
60.190
59.9115
59.8630
59.9105
59.9908
60.679
60.255
59.9585
59.9606
60.125
60.648
60.389
59.9175
59.8776
59.9352
60.26
60.619
60.524
60.18
59.9838
60.149
60.929
60.1142
59.9941
59.9331
59.9947
60.719
60.1197
60.755
60.95
59.9968
60.164
60.710
60.1076
60.129
59.9318
59.9615
60.373
60.1159
60.978
60.310
60.158
60.509
60.1034
60.1180
59.9971
59.9055
59.9382
60.90
60.664
60.750
60.186
59.9832
59.9891
60.372
60.970
60.69
59.8978
59.9294
60.171
60.709
60.472
59.9668
59.9371
59.9605
59.9972
60.446
59.9895
59.8919
59.8801
59.9411
60.293
60.710
60.1
59.9569
59.9859
60.400
60.841
60.77
59.9024
59.9127
59.9818
60.429
60.853
60.465
59.9937
59.9953
60.455
60.1274
60.893
59.9694
59.9575
60.432
60.1153
60.1298
60.624
60.218
60.248
60.543
60.1037
60.845
59.9804
59.9383
59.9970
60.786
60.1371
60.892
60.335
60.436
60.835
60.1336
60.945
59.9653
59.9222
59.9761
60.383
60.901
60.609
60.7
59.9755
59.9988
60.705
60.824
59.9636
59.9018
59.9629
60.419
60.773
60.234
59.9553
59.9477
59.9672
60.58
60.340
59.9385
59.8610
59.8799
59.9579
60.492
60.492
59.9815
59.9602
59.9959
60.510
60.621
59.9518
59.8777
59.9173
59.9816
60.414
60.568
60.61
59.9740
59.9920
60.625
60.1292
60.393
59.9402
59.9684
60.573
60.1151
60.1000
60.235
59.9899
60.57
60.451
60.941
60.313
59.9373
59.9384
60.123
60.885
60.1132
60.463
60.67
60.304
60.835
60.1216
60.306
59.9127
59.9077
59.9717
60.321
60.737
60.229
59.9692
59.9621
60.33
60.777
60.403
59.9222
59.9038
59.9857
60.555
60.654
59.9893
59.9381
59.9468
59.9771
60.251
60.46
59.8979
59.8543
59.9051
59.9969
60.696
60.219
59.9576
59.9645
60.163
60.686
60.400
59.9191
59.8856
59.9444
60.87
60.720
60.555
60.32
59.9849
60.249
60.1100
60.1253
60.12
59.9452
60.223
60.1078
60.1486
60.947
60.274
60.169
60.439
60.962
60.1137
60.135
59.9443
59.9790
60.613
60.1344
60.1172
60.536
60.415
60.764
60.1293
60.1305
60.21
59.9199
59.9565
60.286
60.853
60.809
60.212
59.9902
60.14
60.604
60.1159
60.224
59.9256
59.9531
60.358
60.914
60.691
59.9834
59.9513
59.9681
60.81
60.595
59.9971
59.8979
59.8971
59.9700
60.566
60.861
60.191
59.9803
60.87
60.690
60.1049
60.118
59.9047
59.9238
60.10
60.647
60.1043
60.598
60.151
60.145
60.699
60.1519
60.1044
59.9897
59.9851
60.699
60.1333
60.1488
60.756
60.271
60.317
60.708
60.1340
60.1116
60.8
59.9679
60.231
60.1054
60.1557
60.995
60.384
60.482
60.948
60.1433
60.988
59.9669
59.9239
59.9846
60.508
60.1058
60.795
60.201
59.9938
60.122
60.875
60.969
59.9681
59.9097
59.9682
60.508
60.894
60.285
59.9599
59.9543
59.9842
60.256
60.400
59.9442
59.8753
59.9036
59.9799
60.611
60.418
59.9718
59.9662
60.113
60.623
60.640
59.9485
59.8846
59.9307
60.10
60.680
60.765
60.221
59.9934
60.196
60.945
60.1446
60.355
59.9443
59.9922
60.800
60.1337
60.1126
60.456
60.144
60.276
60.687
60.1167
60.507
59.9561
59.9563
60.321
60.1136
60.1335
60.695
60.387
60.654
60.1077
60.1376
60.394
59.9290
59.9362
60.67
60.685
60.954
60.406
59.9941
59.9911
60.381
60.1107
60.563
59.9314
59.9231
60.79
60.665
60.694
59.9871
59.9451
59.9624
59.9997
60.466
60.185
59.9163
59.8871
59.9400
60.210
60.881
60.358
59.9755
59.9896
60.430
60.877
60.372
59.9187
59.8988
59.9646
60.340
60.934
60.692
60.216
60.56
60.425
60.1271
60.1283
60.66
59.9614
60.350
60.1144
60.1515
60.997
60.386
60.350
60.637
60.1095
60.1155
60.156
59.9575
59.9982
60.759
60.1461
60.1166
60.504
60.400
60.803
60.1330
60.1242
59.9964
59.9305
59.9744
60.395
60.996
60.903
60.281
59.9989
60.102
60.780
60.1183
60.62
59.9189
59.9623
60.458
60.980
60.623
59.9827
59.9598
59.9851
60.278
60.622
59.9846
59.8950
59.9078
59.9834
60.652
60.860
60.92
59.9808
60.121
60.681
60.981
60.40
59.9093
59.9272
59.9995
60.634
60.1027
60.568
60.141
60.195
60.834
60.1593
60.889
59.9780
59.9919
60.806
60.1450
60.1516
60.727
60.317
60.446
60.821
60.1394
60.1000
59.9951
59.9775
60.375
60.1116
60.1539
60.973
60.547
60.752
60.1164
60.1606
60.948
59.9647
59.9405
60.39
60.672
60.1115
60.751
60.249
60.43
60.315
60.1060
60.957
59.9727
59.9324
60.61
60.774
60.1025
60.268
59.9674
59.9697
60.22
60.514
60.499
59.9470
59.8930
59.9386
60.224
60.968
60.609
59.9907
59.9882
60.398
60.999
60.862
59.9614
59.9110
59.9633
60.282
60.951
60.980
60.495
60.268
60.553
60.1315
60.1672
60.495
59.9782
60.405
60.1234
60.1701
60.1314
60.577
60.371
60.579
60.1059
60.1368
60.565
59.9738
59.9989
60.799
60.1575
60.1556
60.842
60.631
60.1018
60.1524
60.1660
60.487
59.9523
59.9753
60.412
60.1009
60.1155
60.604
60.171
60.181
60.724
60.1363
60.593
59.9451
59.9625
60.479
60.1074
60.927
60.40
59.9755
59.9976
60.350
60.825
60.234
59.9225
59.9071
59.9741
60.584
60.1078
60.408
59.9912
60.118
60.677
60.1207
60.519
59.9392
59.9333
59.9979
60.598
60.1120
60.780
60.285
60.222
60.724
60.1548
60.1257
60.31
59.9882
60.722
60.1414
60.1631
60.982
60.447
60.484
60.795
60.1350
60.1272
60.204
59.9756
60.283
60.1047
60.1634
60.1254
60.670
60.656
60.1098
60.1598
60.1241
59.9874
59.9391
60.20
60.723
60.1216
60.968
60.366
60.92
60.276
60.999
60.1262
60.14
59.9281
59.9827
60.663
60.1101
60.576
59.9893
59.9801
60.50
60.521
60.676
59.9709
59.8954
59.9235
59.9996
60.808
60.797
60.62
59.9873
60.314
60.833
60.931
59.9826
59.9141
59.9572
60.268
60.828
60.968
60.526
60.206
60.325
60.981
60.1630
60.705
59.9686
60.20
60.900
60.1466
60.1374
60.598
60.268
60.414
60.867
60.1382
60.736
59.9725
59.9724
60.473
60.1263
60.1529
60.846
60.450
60.632
60.1070
60.1481
60.621
59.9476
59.9479
60.147
60.750
60.1080
60.548
60.79
60.15
60.385
60.1101
60.642
59.9386
59.9218
60.33
60.677
60.831
60.17
59.9519
59.9586
59.9908
60.416
60.258
59.9213
59.8813
59.9328
60.119
60.803
60.332
59.9696
59.9785
60.287
60.749
60.415
59.9229
59.8873
59.9486
60.181
60.815
60.673
60.152
59.9956
60.302
60.1133
60.1296
60.33
59.9471
60.152
60.946
60.1384
60.968
60.257
60.99
60.349
60.893
60.1226
60.292
59.9567
59.9869
60.605
60.1356
60.1156
60.435
60.315
60.683
60.1180
60.1191
59.9927
59.9111
59.9533
60.217
60.775
60.809
60.217
59.9843
59.9938
60.536
60.1079
60.130
59.9082
59.9342
60.181
60.695
60.440
59.9646
59.9422
59.9635
60.35
60.414
59.9713
59.8762
59.8742
59.9472
60.313
60.578
59.9895
59.9490
59.9760
60.306
60.753
59.9934
59.8921
59.8969
59.9618
60.221
60.685
60.299
59.9876
59.9951
60.529
60.1303
60.792
59.9584
59.9580
60.431
60.1077
60.1219
60.453
60.28
60.167
60.512
60.997
60.729
59.9634
59.9346
59.9905
60.733
60.1299
60.746
60.177
60.269
60.684
60.1159
60.696
59.9307
59.8879
59.9492
60.214
60.737
60.410
59.9826
59.9608
59.9833
60.533
60.634
59.9419
59.8825
59.9426
60.181
60.509
59.9932
59.9254
59.9201
59.9448
59.9876
60.74
59.9090
59.8373
59.8657
59.9455
60.297
60.169
59.9465
59.9339
59.9716
60.262
60.317
59.9110
59.8431
59.8870
59.9534
60.184
60.332
59.9808
59.9504
59.9679
60.447
60.1015
60.24
59.9083
59.9416
60.319
60.836
60.671
59.9935
59.9705
59.9846
60.271
60.768
60.84
59.9044
59.9081
59.9819
60.590
60.822
60.158
59.9845
60.85
60.535
60.880
59.9991
59.8820
59.8838
59.9542
60.141
60.482
59.9981
59.9542
59.9412
59.9757
60.462
60.53
59.8821
59.8645
59.9423
60.56
60.196
59.9393
59.8903
59.9036
59.9346
59.9817
59.9560
59.8493
59.8081
59.8616
59.9413
60.97
59.9693
59.9037
59.9089
59.9548
60.23
59.9751
59.8583
59.8240
59.8817
59.9430
60.21
59.9900
59.9350
59.9179
59.9552
60.382
60.617
59.9361
59.8806
59.9490
60.316
60.779
60.300
59.9565
59.9431
59.9669
60.182
60.466
59.9494
59.8763
59.9052
59.9781
60.585
60.528
59.9829
59.9655
59.9991
60.494
60.575
59.9300
59.8438
59.8783
59.9443
60.90
60.240
59.9641
59.9291
59.9282
59.9866
60.502
59.9618
59.8566
59.8805
59.9616
60.149
59.9976
59.9197
59.8942
59.9157
59.9494
59.9917
59.9339
59.8370
59.8242
59.8932
59.9840
60.242
59.9573
59.9141
59.9384
59.9928
60.347
59.9663
59.8559
59.8538
59.9234
59.9884
60.314
59.9912
59.9461
59.9458
59.9999
60.903
60.585
59.9381
59.9187
60.57
60.801
60.981
60.234
59.9686
59.9769
60.144
60.710
60.585
59.9424
59.8976
59.9461
60.279
60.972
60.600
60.49
60.60
60.451
60.943
60.644
59.9337
59.8794
59.9324
59.9994
60.562
60.296
59.9673
59.9388
59.9646
60.339
60.589
59.9397
59.8678
59.9228
60.7
60.400
59.9907
59.9159
59.9076
59.9318
59.9697
59.9964
59.9054
59.8299
59.8529
59.9289
60.129
60.191
59.9441
59.9248
59.9652
60.155
60.307
59.9227
59.8420
59.8717
59.9428
60.110
60.336
59.9890
59.9546
59.9658
60.329
60.1015
60.203
59.9118
59.9331
60.232
60.848
60.788
59.9998
59.9675
59.9800
60.202
60.756
60.240
59.9222
59.9068
59.9731
60.551
60.899
60.247
59.9824
59.9980
60.443
60.842
60.53
59.8825
59.8734
59.9443
60.105
60.547
60.47
59.9480
59.9345
59.9710
60.423
60.183
59.8932
59.8578
59.9346
60.70
60.275
59.9532
59.8952
59.8996
59.9358
59.9791
59.9762
59.8687
59.8148
59.8569
59.9430
60.230
59.9828
59.9166
59.9199
59.9702
60.201
60.27
59.8845
59.8400
59.8947
59.9582
60.232
60.195
59.9645
59.9433
59.9733
60.516
60.853
59.9681
59.8958
59.9610
60.456
60.880
60.503
59.9811
59.9602
59.9841
60.388
60.767
59.9868
59.9047
59.9281
60.32
60.751
60.696
59.9984
59.9781
60.118
60.607
60.781
59.9638
59.8724
59.8914
59.9582
60.203
60.371
59.9830
59.9369
59.9344
59.9793
60.460
59.9682
59.8543
59.8681
59.9586
60.192
60.78
59.9201
59.8803
59.8991
59.9356
59.9857
59.9403
59.8383
59.8169
59.8734
59.9570
60.128
59.9491
59.8927
59.9151
59.9729
60.158
59.9537
59.8389
59.8362
59.9006
59.9602
60.115
59.9772
59.9305
59.9262
59.9791
60.626
60.426
59.9087
59.8763
59.9593
60.379
60.657
60.6
59.9436
59.9425
59.9699
60.228
60.282
59.9230
59.8642
59.9078
59.9821
60.485
60.175
59.9570
59.9591
59.9933
60.382
60.261
59.8944
59.8263
59.8682
59.9397
59.9930
59.9793
59.9217
59.8883
59.8982
59.9607
60.78
59.9011
59.8081
59.8491
59.9360
59.9815
59.9402
59.8584
59.8387
59.8637
59.9070
59.9451
59.8680
59.7792
59.7854
59.8520
59.9328
59.9560
59.8813
59.8522
59.8862
59.9395
59.9708
59.8750
59.7790
59.7948
59.8638
59.9278
59.9664
59.9213
59.8818
59.8820
59.9400
60.200
59.9604
59.8443
59.8459
59.9355
60.39
60.153
59.9413
59.8990
59.9079
59.9421
59.9965
59.9636
59.8575
59.8241
59.8786
59.9588
60.176
59.9645
59.9086
59.9202
59.9683
60.149
59.9668
59.8325
59.7928
59.8526
59.9258
59.9778
59.9479
59.8926
59.8709
59.8917
59.9577
59.9688
59.8474
59.7848
59.8505
59.9296
59.9606
59.9030
59.8368
59.8310
59.8568
59.9027
59.9203
59.8202
59.7440
59.7725
59.8500
59.9366
59.9333
59.8660
59.8468
59.8871
59.9409
59.9579
59.8468
59.7697
59.8048
59.8732
59.9362
59.9589
59.9162
59.8881
59.9014
59.9675
60.327
59.9405
59.8396
59.8751
59.9622
60.158
60.11
59.9270
59.8984
59.9131
59.9555
60.107
59.9531
59.8476
59.8394
59.9076
59.9870
60.162
59.9558
59.9221
59.9507
59.9953
60.352
59.9492
59.8299
59.8216
59.8842
59.9446
59.9822
59.9353
59.8830
59.8663
59.9020
59.9802
59.9550
59.8341
59.8056
59.8857
59.9571
59.9687
59.8936
59.8459
59.8530
59.8841
59.9301
59.9204
59.8140
59.7638
59.8065
59.8875
59.9633
59.9301
59.8677
59.8692
59.9230
59.9788
59.9620
59.8393
59.7917
59.8479
59.9131
59.9737
59.9670
59.9088
59.8835
59.9123
59.9932
60.293
59.9177
59.8490
59.9116
59.9984
60.468
60.75
59.9356
59.9181
59.9422
59.9873
60.230
59.9367
59.8552
59.8797
59.9509
60.278
60.281
59.9601
59.9351
59.9706
60.231
60.474
59.9353
59.8348
59.8572
59.9259
59.9816
60.37
59.9437
59.9015
59.9046
59.9589
60.185
59.9489
59.8347
59.8403
59.9294
59.9923
59.9895
59.9077
59.8665
59.8801
59.9140
59.9603
59.9212
59.8157
59.7862
59.8464
59.9316
59.9921
59.9402
59.8915
59.9107
59.9587
60.103
59.9542
59.8399
59.8287
59.8966
59.9585
60.119
59.9843
59.9352
59.9254
59.9657
60.522
60.438
59.9226
59.8895
59.9649
60.411
60.732
60.98
59.9470
59.9408
59.9672
60.258
60.425
59.9450
59.8824
59.9177
59.9972
60.725
60.433
59.9798
59.9770
60.156
60.632
60.460
59.9193
59.8517
59.8968
59.9625
60.223
60.118
59.9505
59.9187
59.9388
60.22
60.474
59.9407
59.8503
59.8954
59.9788
60.227
59.9882
59.9077
59.8885
59.9158
59.9533
59.9921
59.9187
59.8318
59.8348
59.9084
59.9951
60.149
59.9413
59.9074
59.9456
60.16
60.315
59.9324
59.8415
59.8597
59.9303
59.9972
60.364
59.9934
59.9594
59.9607
60.190
60.1032
60.377
59.9169
59.9233
60.85
60.744
60.898
60.160
59.9690
59.9741
60.129
60.678
60.342
59.9325
59.9076
59.9696
60.509
60.979
60.369
59.9900
60.116
60.481
60.892
60.313
59.9047
59.8690
59.9318
60.39
60.576
60.179
59.9590
59.9370
59.9619
60.352
60.385
59.9158
59.8671
59.9333
60.82
60.367
59.9708
59.9035
59.9047
59.9332
59.9778
59.9901
59.8805
59.8105
59.8476
59.9324
60.185
59.9980
59.9285
59.9199
59.9653
60.229
60.185
59.9021
59.8429
59.8898
59.9563
60.133
60.225
59.9706
59.9372
59.9595
60.372
60.859
59.9891
59.9056
59.9542
60.457
60.990
60.700
59.9925
59.9694
59.9853
60.311
60.818
60.87
59.9124
59.9227
59.9964
60.757
60.903
60.223
59.9945
60.224
60.741
60.1006
59.9987
59.8918
59.9017
59.9653
60.252
60.563
60.53
59.9640
59.9591
60.29
60.752
60.188
59.8980
59.8897
59.9705
60.351
60.439
59.9593
59.9145
59.9257
59.9589
60.67
59.9741
59.8678
59.8409
59.8967
59.9796
60.409
59.9895
59.9353
59.9472
60.10
60.433
59.9960
59.8790
59.8561
59.9224
59.9896
60.545
60.265
59.9728
59.9645
60.86
60.910
60.894
59.9640
59.9205
59.9924
60.751
60.1122
60.536
59.9840
59.9718
60.29
60.600
60.756
59.9765
59.9152
59.9567
60.342
60.1037
60.737
60.70
59.9985
60.398
60.899
60.871
59.9625
59.8839
59.9224
59.9893
60.480
60.507
59.9884
59.9518
59.9631
60.240
60.735
59.9703
59.8776
59.9166
60.16
60.503
60.171
59.9341
59.9060
59.9249
59.9681
60.92
59.9360
59.8458
59.8447
59.9150
60.49
60.360
59.9643
59.9309
59.9613
60.178
60.483
59.9553
59.8552
59.8722
59.9418
60.54
60.484
59.9956
59.9523
59.9583
60.182
60.991
60.475
59.9347
59.9359
60.260
60.894
60.985
60.268
59.9839
59.9919
60.207
60.761
60.476
59.9432
59.9186
59.9784
60.524
60.987
60.476
59.9988
60.94
60.597
60.1122
60.566
59.9234
59.8867
59.9479
60.117
60.643
60.366
59.9795
59.9574
59.9807
60.531
60.610
59.9456
59.8881
59.9485
60.205
60.569
59.9982
59.9271
59.9182
59.9481
60.56
60.209
59.9220
59.8519
59.8851
59.9716
60.543
60.349
59.9680
59.9602
60.33
60.620
60.652
59.9417
59.8771
59.9250
59.9971
60.592
60.708
60.261
59.9995
60.174
60.858
60.1388
60.368
59.9460
59.9906
60.829
60.1345
60.1066
60.292
60.108
60.306
60.764
60.1245
60.464
59.9539
59.9683
60.452
60.1243
60.1354
60.691
60.442
60.666
60.1119
60.1397
60.347
59.9259
59.9347
60.48
60.641
60.965
60.500
60.62
59.9960
60.343
60.1091
60.583
59.9376
59.9269
60.82
60.712
60.718
59.9837
59.9395
59.9550
59.9926
60.468
60.145
59.9042
59.8737
59.9263
60.105
60.713
60.233
59.9690
59.9823
60.319
60.824
60.372
59.9199
59.8940
59.9527
60.151
60.707
60.472
59.9940
59.9852
60.312
60.1223
60.1220
59.9957
59.9551
60.307
60.1010
60.1339
60.739
60.119
60.57
60.331
60.859
60.950
59.9902
59.9315
59.9779
60.601
60.1344
60.997
60.275
60.244
60.600
60.1100
60.1049
59.9736
59.8998
59.9404
60.125
60.694
60.591
60.8
59.9697
59.9809
60.409
60.940
59.9956
59.9014
59.9395
60.219
60.646
60.234
59.9445
59.9259
59.9506
59.9894
60.268
59.9528
59.8683
59.8723
59.9412
60.309
60.658
59.9933
59.9599
59.9876
60.407
60.754
59.9818
59.8819
59.8949
59.9614
60.250
60.654
60.228
59.9816
59.9879
60.469
60.1281
60.686
59.9581
59.9657
60.541
60.1177
60.1193
60.423
59.9991
60.57
60.410
60.984
60.579
59.9489
59.9335
60.25
60.801
60.1280
60.667
60.195
60.367
60.732
60.1213
60.656
59.9316
59.8993
59.9584
60.219
60.713
60.318
59.9804
59.9604
59.9893
60.708
60.679
59.9485
59.8990
59.9681
60.449
60.713
59.9951
59.9305
59.9288
59.9616
60.61
60.102
59.9084
59.8457
59.8785
59.9614
60.478
60.295
59.9555
59.9461
59.9901
60.500
60.475
59.9326
59.8652
59.9100
59.9731
60.344
60.426
59.9942
59.9727
59.9974
60.701
60.1189
60.159
59.9326
59.9816
60.662
60.1181
60.918
60.121
59.9864
60.9
60.426
60.892
60.69
59.9220
59.9401
60.130
60.924
60.992
60.277
60.9
60.339
60.862
60.1194
60.129
59.8984
59.9077
59.9777
60.472
60.683
60.94
59.9620
59.9586
60.91
60.848
60.275
59.9051
59.9048
59.9902
60.496
60.492
59.9616
59.9219
59.9377
59.9682
60.120
59.9807
59.8736
59.8510
59.9125
60.44
60.652
60.46
59.9517
59.9663
60.167
60.614
60.149
59.8957
59.8716
59.9388
60.15
60.575
60.298
59.9859
59.9793
60.248
60.1098
60.1096
59.9858
59.9481
60.205
60.965
60.1358
60.750
60.60
59.9984
60.313
60.849
60.923
59.9909
59.9288
59.9752
60.532
60.1261
60.1034
60.418
60.363
60.751
60.1232
60.1095
59.9750
59.8971
59.9417
60.162
60.772
60.624
60.14
59.9764
59.9906
60.584
60.1065
59.9997
59.9069
59.9438
60.295
60.789
60.350
59.9518
59.9306
59.9592
60.12
60.358
59.9493
59.8550
59.8743
59.9584
60.416
60.619
59.9938
59.9644
59.9945
60.478
60.804
59.9810
59.8890
59.9063
59.9757
60.389
60.724
60.293
59.9868
59.9973
60.576
60.1347
60.712
59.9659
59.9794
60.712
60.1312
60.1302
60.506
60.91
60.125
60.465
60.977
60.628
59.9594
59.9398
60.39
60.878
60.1336
60.767
60.320
60.527
60.986
60.1450
60.832
59.9537
59.9284
59.9905
60.468
60.911
60.457
59.9841
59.9730
60.128
60.901
60.826
59.9608
59.9175
59.9835
60.581
60.856
60.161
59.9574
59.9627
59.9921
60.396
60.389
59.9333
59.8756
59.9185
60.37
60.796
60.507
59.9842
59.9804
60.270
60.825
60.758
59.9600
59.9059
59.9567
60.233
60.748
60.782
60.306
60.57
60.324
60.1164
60.1586
60.464
59.9734
60.333
60.1187
60.1626
60.1314
60.593
60.344
60.507
60.949
60.1397
60.553
59.9684
59.9923
60.687
60.1430
60.1431
60.762
60.537
60.878
60.1414
60.1688
60.563
59.9520
59.9648
60.393
60.1058
60.1220
60.600
60.127
60.156
60.659
60.1322
60.605
