=~=~=~=~=~=~=~=~=~=~=~= PuTTY log 2025.04.24 08:59:04 =~=~=~=~=~=~=~=~=~=~=~=




Speed (Hz)
60.613
60.3289
60.6029
60.6809
60.6643
60.6210
60.6110
60.5602
60.4824
60.4520
60.4610
60.5137
60.5021
60.3603
60.2784
60.3247
60.3843
60.4015
60.3335
60.2520
60.2289
60.2345
60.2725
60.2875
60.1810
60.1039
60.1289
60.1981
60.2586
60.2317
60.1485
60.1270
60.1558
60.1970
60.1950
60.595
59.9677
59.9940
60.639
60.1181
60.1264
60.671
60.236
60.165
60.748
60.1308
60.322
59.9187
59.9370
60.192
60.727
60.450
59.9592
59.9347
59.9563
59.9960
60.377
59.9761
59.8747
59.8616
59.9303
60.190
60.574
59.9842
59.9301
59.9575
60.143
60.537
59.9764
59.8666
59.8670
59.9360
59.9988
60.447
60.67
59.9645
59.9647
60.176
60.949
60.528
59.9279
59.9133
59.9961
60.658
60.845
60.121
59.9597
59.9601
59.9869
60.406
60.319
59.9263
59.8862
59.9475
60.281
60.833
60.329
59.9737
59.9751
60.137
60.598
60.310
59.8973
59.8508
59.9073
59.9681
60.227
60.7
59.9503
59.9273
59.9410
60.63
60.296
59.9129
59.8433
59.9006
59.9772
60.127
59.9544
59.8840
59.8764
59.9076
59.9607
59.9898
59.8973
59.8222
59.8436
59.9178
60.28
60.30
59.9266
59.9012
59.9382
59.9941
60.90
59.9002
59.8192
59.8495
59.9242
59.9913
60.174
59.9659
59.9339
59.9533
60.178
60.900
60.15
59.8946
59.9109
59.9918
60.505
60.478
59.9773
59.9405
59.9555
59.9972
60.541
60.39
59.9020
59.8929
59.9595
60.353
60.654
60.44
59.9616
59.9797
60.204
60.526
59.9782
59.8615
59.8537
59.9233
59.9887
60.326
59.9861
59.9324
59.9194
59.9522
60.215
59.9998
59.8735
59.8339
59.9029
59.9710
59.9939
59.9238
59.8694
59.8772
59.9122
59.9645
59.9601
59.8578
59.8034
59.8440
59.9213
59.9972
59.9664
59.9006
59.8970
59.9411
60.3
59.9851
59.8627
59.8139
59.8653
59.9326
59.9998
60.10
59.9461
59.9221
59.9467
60.197
60.562
59.9427
59.8641
59.9188
60.0
60.482
60.133
59.9436
59.9251
59.9484
59.9967
60.313
59.9462
59.8653
59.8837
59.9566
60.323
60.337
59.9666
59.9419
59.9676
60.142
60.371
59.9251
59.8260
59.8412
59.9105
59.9766
60.27
59.9417
59.9007
59.8950
59.9405
60.68
59.9351
59.8161
59.8192
59.9037
59.9575
59.9544
59.8768
59.8456
59.8638
59.9003
59.9485
59.9082
59.8083
59.7891
59.8471
59.9240
59.9803
59.9208
59.8682
59.8809
59.9285
59.9728
59.9208
59.8104
59.8017
59.8673
59.9332
59.9903
59.9641
59.9154
59.9077
59.9467
60.282
60.223
59.8951
59.8538
59.9315
60.83
60.357
59.9812
59.9262
59.9228
59.9517
60.86
60.170
59.9105
59.8507
59.8927
59.9699
60.416
60.148
59.9462
59.9354
59.9755
60.271
60.211
59.8907
59.8157
59.8538
59.9213
59.9843
59.9869
59.9318
59.9010
59.9065
59.9654
60.152
59.9143
59.8189
59.8555
59.9382
59.9878
59.9524
59.8745
59.8543
59.8816
59.9207
59.9633
59.8966
59.8030
59.8015
59.8694
59.9582
59.9870
59.9184
59.8769
59.8985
59.9575
59.9996
59.9119
59.8104
59.8282
59.8976
59.9643
60.142
59.9697
59.9286
59.9294
59.9855
60.643
60.78
59.8856
59.8832
59.9741
60.393
60.449
59.9715
59.9295
59.9405
59.9733
60.300
60.138
59.8998
59.8704
59.9309
60.146
60.632
60.88
59.9539
59.9564
59.9985
60.490
60.91
59.8758
59.8341
59.8947
59.9603
60.145
59.9889
59.9360
59.9167
59.9354
60.55
60.139
59.8835
59.8139
59.8765
59.9594
60.21
59.9439
59.8716
59.8668
59.8996
59.9481
59.9699
59.8745
59.8011
59.8379
59.9104
59.9859
59.9754
59.9087
59.8921
59.9311
59.9850
59.9951
59.8853
59.8127
59.8528
59.9173
59.9822
60.34
59.9568
59.9313
59.9428
60.76
60.625
59.9712
59.8678
59.8997
59.9899
60.458
60.315
59.9537
59.9199
59.9354
59.9777
60.323
59.9767
59.8761
59.8770
59.9458
60.188
60.449
59.9822
59.9419
59.9545
59.9994
60.362
59.9596
59.8389
59.8277
59.8979
59.9635
60.31
59.9615
59.9177
59.9071
59.9403
60.116
59.9762
59.8544
59.8293
59.9112
59.9761
59.9831
59.9051
59.8555
59.8620
59.8949
59.9487
59.9435
59.8362
59.7887
59.8370
59.9242
60.6
59.9588
59.8886
59.8964
59.9443
59.9910
59.9642
59.8395
59.7953
59.8588
59.9257
59.9917
59.9891
59.9359
59.9148
59.9482
60.277
60.544
59.9309
59.8594
59.9202
60.76
60.514
60.100
59.9406
59.9285
59.9495
59.9978
60.359
59.9469
59.8650
59.8937
59.9706
60.432
60.427
59.9727
59.9542
59.9800
60.236
60.428
59.9342
59.8350
59.8539
59.9218
59.9857
59.9988
59.9449
59.9057
59.9091
59.9591
60.280
59.9534
59.8424
59.8494
59.9280
59.9850
59.9736
59.8944
59.8615
59.8848
59.9183
59.9693
59.9259
59.8280
59.8065
59.8645
59.9536
60.102
59.9502
59.8958
59.9153
59.9630
60.80
59.9464
59.8333
59.8217
59.8915
59.9557
60.154
59.9865
59.9457
59.9388
59.9838
60.650
60.472
59.9209
59.8869
59.9603
60.329
60.633
60.31
59.9481
59.9459
59.9782
60.350
60.398
59.9294
59.8805
59.9303
60.75
60.720
60.364
59.9770
59.9687
60.33
60.543
60.370
59.9083
59.8440
59.8850
59.9562
60.188
60.88
59.9552
59.9260
59.9373
59.9998
60.414
59.9296
59.8351
59.8800
59.9605
60.67
59.9679
59.8905
59.8745
59.8946
59.9337
59.9763
59.9003
59.8147
59.8283
59.9013
59.9911
60.122
59.9379
59.9038
59.9350
59.9867
60.115
59.9104
59.8183
59.8401
59.9146
59.9782
60.161
59.9743
59.9395
59.9524
60.126
60.848
60.156
59.8979
59.9017
59.9883
60.478
60.535
59.9805
59.9433
59.9548
59.9864
60.424
60.71
59.9091
59.8975
59.9611
60.324
60.766
60.181
59.9665
59.9729
60.147
60.560
59.9961
59.8638
59.8362
59.9040
59.9751
60.243
59.9880
59.9392
59.9276
59.9547
60.298
60.185
59.8899
59.8326
59.8995
59.9753
60.97
59.9461
59.8782
59.8801
59.9132
59.9651
59.9795
59.8767
59.8111
59.8565
59.9386
60.200
59.9976
59.9235
59.9148
59.9555
60.24
60.28
59.8869
59.8293
59.8796
59.9468
60.144
60.201
59.9678
59.9455
59.9710
60.453
60.916
59.9818
59.8884
59.9347
60.252
60.781
60.523
59.9757
59.9536
59.9705
60.187
60.638
59.9939
59.9002
59.9100
59.9910
60.662
60.727
59.9998
59.9740
60.58
60.525
60.776
59.9745
59.8628
59.8707
59.9359
59.9990
60.327
59.9830
59.9408
59.9393
59.9823
60.518
59.9964
59.8735
59.8618
59.9410
60.16
60.29
59.9188
59.8772
59.8894
59.9251
59.9813
59.9603
59.8555
59.8237
59.8736
59.9594
60.248
59.9655
59.9004
59.9094
59.9627
60.127
59.9655
59.8451
59.8250
59.8912
59.9563
60.144
59.9971
59.9475
59.9330
59.9652
60.449
60.539
59.9249
59.8842
59.9597
60.322
60.645
60.98
59.9460
59.9369
59.9641
60.131
60.388
59.9444
59.8787
59.9167
59.9947
60.644
60.409
59.9757
59.9615
59.9926
60.429
60.443
59.9175
59.8362
59.8766
59.9481
60.84
60.120
59.9544
59.9260
59.9387
59.9951
60.494
59.9544
59.8495
59.8714
59.9530
59.9984
59.9764
59.9005
59.8818
59.9040
59.9437
59.9875
59.9272
59.8308
59.8368
59.9077
59.9916
60.241
59.9543
59.9146
59.9407
59.9981
60.326
59.9446
59.8432
59.8524
59.9275
59.9994
60.441
59.9993
59.9583
59.9553
60.127
60.896
60.516
59.9309
59.9253
60.83
60.751
60.892
60.165
59.9701
59.9753
60.91
60.668
60.530
59.9468
59.9159
59.9718
60.482
60.1034
60.503
59.9966
60.7
60.412
60.884
60.463
59.9216
59.8792
59.9385
60.58
60.637
60.379
59.9817
59.9622
59.9823
60.483
60.634
59.9483
59.8884
59.9501
60.220
60.530
59.9950
59.9286
59.9216
59.9446
59.9909
60.185
59.9264
59.8542
59.8874
59.9633
60.479
60.433
59.9750
59.9562
59.9888
60.404
60.459
59.9292
59.8646
59.9103
59.9763
60.432
60.595
60.122
59.9890
60.107
60.791
60.1323
60.334
59.9347
59.9714
60.595
60.1158
60.968
60.175
59.9859
59.9984
60.426
60.985
60.365
59.9444
59.9502
60.232
60.981
60.1188
60.529
60.173
60.341
60.741
60.1088
60.201
59.9003
59.9019
59.9747
60.407
60.764
60.278
59.9837
59.9785
60.147
60.831
60.373
59.9147
59.8960
59.9718
60.387
60.509
59.9687
59.9233
59.9390
59.9726
60.165
59.9995
59.9016
59.8703
59.9217
60.49
60.731
60.240
59.9617
59.9676
60.142
60.608
60.239
59.9066
59.8776
59.9341
59.9969
60.628
60.576
60.94
59.9949
60.290
60.1114
60.1242
59.9994
59.9421
60.125
60.853
60.1162
60.692
60.30
59.9901
60.136
60.755
60.1041
60.71
59.9410
59.9768
60.550
60.1275
60.1073
60.372
60.245
60.529
60.978
60.1013
59.9749
59.8911
59.9318
60.86
60.702
60.758
60.179
59.9861
59.9990
60.552
60.1018
60.39
59.9056
59.9291
60.125
60.630
60.344
59.9554
59.9309
59.9553
59.9983
60.490
59.9835
59.8898
59.8943
59.9673
60.516
60.832
60.74
59.9609
59.9790
60.386
60.854
59.9993
59.8887
59.8977
59.9719
60.394
60.847
60.505
60.142
60.223
60.757
60.1530
60.978
59.9770
59.9711
60.516
60.1107
60.1222
60.512
60.45
60.141
60.483
60.1078
60.892
59.9802
59.9481
60.84
60.908
60.1443
60.899
60.302
60.363
60.783
60.1192
60.667
59.9311
59.8909
59.9489
60.211
60.871
60.558
59.9987
59.9817
60.65
60.804
60.835
59.9530
59.8845
59.9469
60.206
60.603
59.9945
59.9256
59.9157
59.9504
59.9995
60.194
59.9273
59.8574
59.8922
59.9735
60.557
60.419
59.9624
59.9426
59.9892
60.324
60.392
59.9265
59.8590
59.8973
59.9594
60.275
60.495
60.2
59.9766
60.2
60.682
60.1205
60.145
59.9193
59.9602
60.407
60.882
60.619
59.9924
59.9702
59.9856
60.225
60.741
60.143
59.9238
59.9325
60.41
60.734
60.859
60.168
59.9892
60.114
60.610
60.974
59.9915
59.8713
59.8758
59.9520
60.157
60.560
60.112
59.9663
59.9575
59.9982
60.705
60.207
59.8945
59.8820
59.9649
60.252
60.289
59.9455
59.9027
59.9100
59.9396
59.9904
59.9798
59.8790
59.8410
59.8983
59.9792
60.450
59.9964
59.9333
59.9395
59.9845
60.378
59.9997
59.8784
59.8507
59.9147
59.9786
60.394
60.272
59.9774
59.9623
59.9986
60.833
60.979
59.9771
59.9180
59.9812
60.583
60.964
60.473
59.9784
59.9628
59.9816
60.385
60.691
59.9750
59.9095
59.9484
60.237
60.930
60.760
60.74
59.9948
60.276
60.771
60.779
59.9460
59.8626
59.9036
59.9765
60.353
60.426
59.9810
59.9509
59.9566
60.157
60.746
59.9798
59.8765
59.9023
59.9809
60.281
60.5
59.9185
59.8977
59.9223
59.9594
60.82
59.9420
59.8495
59.8484
59.9197
60.74
60.464
59.9783
59.9331
59.9572
60.81
60.452
59.9624
59.8611
59.8640
59.9296
59.9946
60.454
60.99
59.9704
59.9761
60.323
60.1111
60.686
59.9444
59.9299
60.136
60.782
60.953
60.234
59.9773
59.9788
60.186
60.767
60.593
59.9537
59.9173
59.9739
60.497
60.1062
60.668
60.93
60.132
60.569
60.1025
60.616
59.9310
59.8885
59.9484
60.160
60.709
60.482
60.27
59.9833
60.52
60.718
60.778
59.9489
59.8900
59.9552
60.298
60.646
60.80
59.9435
59.9456
59.9738
60.177
60.402
59.9527
59.8795
59.9062
59.9897
60.754
60.677
59.9957
59.9769
60.200
60.727
60.802
59.9615
59.8898
59.9311
60.72
60.704
60.935
60.474
60.213
60.406
60.1052
60.1527
60.559
59.9645
60.42
60.928
60.1455
60.1244
60.516
60.273
60.513
60.918
60.1387
60.715
59.9770
59.9764
60.462
60.1223
60.1479
60.814
60.457
60.706
60.1219
60.1542
60.556
59.9417
59.9411
60.85
60.728
60.1073
60.585
60.126
60.56
60.418
60.1181
60.702
59.9474
59.9284
60.129
60.815
60.915
60.120
59.9681
59.9794
60.135
60.666
60.398
59.9311
59.9015
59.9598
60.404
60.1067
60.557
59.9963
60.40
60.570
60.1079
60.611
59.9436
59.9200
59.9870
60.545
60.1080
60.897
60.455
60.372
60.758
60.1504
60.1507
60.285
59.9826
60.624
60.1453
60.1780
60.1206
60.582
60.513
60.722
60.1228
60.1421
60.467
59.9886
60.312
60.1072
60.1783
60.1474
60.858
60.857
60.1225
60.1654
60.1617
60.352
59.9620
60.72
60.748
60.1313
60.1279
60.693
60.406
60.534
60.1140
60.1652
60.580
59.9729
60.82
60.914
60.1377
60.926
60.163
59.9987
60.226
60.698
60.1084
60.267
59.9383
59.9499
60.255
60.1156
60.1382
60.660
60.293
60.592
60.1175
60.1441
60.494
59.9508
59.9696
60.413
60.1064
60.1423
60.1025
60.688
60.760
60.1365
60.2056
60.1288
60.202
60.382
60.1267
60.1851
60.1787
60.1033
60.633
60.716
60.1091
60.1678
60.1251
60.248
60.37
60.681
60.1450
60.1880
60.1299
60.837
60.965
60.1422
60.1834
60.1079
59.9741
59.9624
60.264
60.910
60.1364
60.928
60.397
60.234
60.673
60.1406
60.1181
59.9901
59.9572
60.326
60.1018
60.1190
60.411
59.9861
59.9881
60.214
60.697
60.700
59.9738
59.9226
59.9671
60.447
60.1217
60.861
60.177
60.194
60.679
60.1202
60.1042
59.9818
59.9322
59.9810
60.480
60.1180
60.1144
60.645
60.464
60.744
60.1534
60.1853
60.647
59.9971
60.536
60.1286
60.1692
60.1315
60.657
60.444
60.663
60.1159
60.1492
60.619
59.9906
60.230
60.965
60.1643
60.1589
60.962
60.763
60.1041
60.1492
60.1605
60.347
59.9463
59.9777
60.454
60.1119
60.1213
60.683
60.304
60.324
60.839
60.1496
60.657
59.9547
59.9716
60.565
60.1114
60.923
60.111
59.9806
59.9980
60.373
60.860
60.329
59.9345
59.9282
59.9904
60.765
60.1225
60.505
60.20
60.257
60.798
60.1210
60.465
59.9383
59.9344
59.9980
60.623
60.1248
60.1027
60.543
60.483
60.923
60.1777
60.1408
60.185
60.27
60.862
60.1526
60.1728
60.1018
60.497
60.493
60.775
60.1376
60.1279
60.255
59.9876
60.449
60.1241
60.1808
60.1281
60.754
60.780
60.1183
60.1639
60.1198
59.9881
59.9436
60.52
60.726
60.1269
60.1024
60.495
60.279
60.505
60.1215
60.1318
60.108
59.9481
60.39
60.766
60.1084
60.458
59.9814
59.9803
60.129
60.544
60.730
59.9849
59.9215
59.9547
60.298
60.1111
60.999
60.322
60.146
60.529
60.1047
60.1089
59.9973
59.9289
59.9689
60.346
60.998
60.1170
60.671
60.361
60.533
60.1255
60.1874
60.893
59.9971
60.292
60.1131
60.1618
60.1371
60.626
60.377
60.521
60.945
60.1482
60.861
59.9996
60.22
60.716
60.1493
60.1691
60.975
60.657
60.879
60.1323
60.1572
60.556
59.9413
59.9469
60.228
60.881
60.1182
60.674
60.279
60.242
60.692
60.1315
60.758
59.9569
59.9422
60.219
60.866
60.795
59.9954
59.9542
59.9726
60.72
60.579
60.282
59.9258
59.8983
59.9568
60.437
60.1058
60.524
59.9871
59.9938
60.411
60.889
60.419
59.9217
59.9006
59.9652
60.305
60.933
60.727
60.297
60.212
60.536
60.1300
60.1271
60.61
59.9603
60.315
60.1068
60.1394
60.811
60.126
59.9991
60.282
60.905
60.1124
60.104
59.9507
59.9936
60.693
60.1391
60.1155
60.441
60.353
60.697
60.1149
60.1051
59.9726
59.9001
59.9459
60.194
60.858
60.790
60.236
59.9961
60.45
60.636
60.1126
60.66
59.9113
59.9478
60.275
60.735
60.371
59.9575
59.9405
59.9672
60.161
60.653
59.9926
59.9005
59.9110
59.9836
60.739
60.880
60.115
59.9764
60.95
60.619
60.892
59.9951
59.9002
59.9218
59.9917
60.545
60.959
60.549
60.185
60.220
60.855
60.1620
60.976
59.9797
59.9817
60.678
60.1283
60.1333
60.595
60.135
60.173
60.531
60.1104
60.850
59.9749
59.9503
60.214
60.1048
60.1496
60.904
60.385
60.538
60.927
60.1333
60.717
59.9449
59.9140
59.9741
60.434
60.953
60.632
60.115
59.9992
60.286
60.996
60.961
59.9662
59.9161
59.9824
60.461
60.690
60.42
59.9460
59.9466
59.9736
60.245
60.418
59.9487
59.8890
59.9250
60.85
60.835
60.528
59.9810
59.9741
60.205
60.691
60.560
59.9319
59.8801
59.9293
60.30
60.700
60.749
60.284
60.111
60.322
60.1058
60.1415
60.332
59.9510
59.9961
60.781
60.1224
60.934
60.280
60.33
60.176
60.648
60.1149
60.467
59.9630
59.9783
60.498
60.1304
60.1332
60.594
60.294
60.523
60.1009
60.1181
60.123
59.9083
59.9209
59.9934
60.589
60.891
60.376
59.9977
59.9955
60.432
60.1139
60.462
59.9247
59.9239
60.37
60.579
60.543
59.9775
59.9452
59.9573
59.9892
60.385
60.58
59.9128
59.8914
59.9495
60.303
60.862
60.244
59.9710
59.9866
60.380
60.809
60.251
59.9099
59.8984
59.9677
60.331
60.877
60.607
60.192
60.169
60.623
60.1425
60.1248
60.4
59.9631
60.391
60.1104
60.1418
60.810
60.229
60.212
60.494
60.1030
60.1115
60.138
59.9636
60.95
60.836
60.1549
60.1227
60.553
60.485
60.825
60.1290
60.1085
59.9783
59.9183
59.9720
60.375
60.1002
60.896
60.285
60.38
60.162
60.815
60.1240
60.96
59.9219
59.9639
60.417
60.816
60.334
59.9627
59.9527
59.9754
60.216
60.587
59.9763
59.8947
59.9067
59.9798
60.687
60.852
60.96
59.9755
60.41
60.583
60.875
59.9827
59.8896
59.9136
59.9807
60.465
60.856
60.423
60.78
60.161
60.746
60.1460
60.711
59.9597
59.9723
60.608
60.1185
60.1096
60.291
59.9935
60.118
60.569
60.1118
60.632
59.9612
59.9452
60.107
60.868
60.1213
60.612
60.169
60.301
60.716
60.1072
60.340
59.9121
59.8928
59.9620
60.284
60.787
60.368
59.9821
59.9637
59.9948
60.736
60.526
59.9283
59.8844
59.9567
60.219
60.410
59.9652
59.9090
59.9153
59.9480
60.63
60.25
59.8957
59.8404
59.8847
59.9727
60.529
60.198
59.9469
59.9435
59.9848
60.394
60.271
59.9036
59.8503
59.9001
59.9679
60.408
60.473
59.9982
59.9779
60.7
60.754
60.1160
59.9998
59.9193
59.9775
60.588
60.1036
60.642
59.9892
59.9748
59.9950
60.425
60.886
60.77
59.9203
59.9478
60.289
60.1049
60.1094
60.330
59.9991
60.343
60.841
60.1022
59.9861
59.8849
59.9100
59.9807
60.491
60.725
60.181
59.9802
59.9834
60.348
60.983
60.219
59.9051
59.9160
60.56
60.574
60.473
59.9663
59.9313
59.9459
59.9815
60.378
60.9
59.9087
59.8935
59.9572
60.428
60.894
60.251
59.9730
59.9903
60.466
60.915
60.208
59.9109
59.9004
59.9680
60.378
60.994
60.738
60.221
60.126
60.588
60.1394
60.1111
59.9856
59.9575
60.383
60.1053
60.1301
60.645
60.161
60.184
60.457
60.1011
60.1039
60.9
59.9494
60.5
60.802
60.1395
60.907
60.300
60.288
60.639
60.1078
60.847
59.9625
59.9082
59.9573
60.255
60.885
60.738
60.179
59.9897
59.9994
60.604
60.887
59.9728
59.8935
59.9442
60.232
60.603
60.95
59.9340
59.9295
59.9567
59.9996
60.345
59.9510
59.8723
59.8962
59.9640
60.419
60.426
59.9749
59.9531
59.9855
60.409
60.619
59.9576
59.8743
59.9008
59.9787
60.494
60.720
60.247
59.9883
59.9982
60.581
60.1282
60.442
59.9269
59.9499
60.398
60.1011
60.949
60.215
59.9869
60.53
60.478
60.1064
60.532
59.9529
59.9465
60.82
60.790
60.1144
60.490
60.44
60.165
60.631
60.1057
60.315
59.9136
59.9009
59.9726
60.363
60.791
60.343
59.9848
59.9745
60.106
60.866
60.574
59.9323
59.8999
59.9773
60.490
60.700
59.9927
59.9391
59.9458
59.9817
60.372
60.369
59.9317
59.8775
59.9273
60.85
60.830
60.481
59.9817
59.9788
60.214
60.759
60.596
59.9410
59.9051
59.9627
60.266
60.915
60.908
60.382
60.159
60.450
60.1242
60.1556
60.365
59.9656
60.281
60.1110
60.1527
60.1080
60.375
60.225
60.496
60.1028
60.1400
60.518
59.9804
60.79
60.755
60.1522
60.1446
60.760
60.560
60.845
60.1308
60.1484
60.269
59.9368
59.9658
60.350
60.954
60.1081
60.512
60.139
60.185
60.723
60.1385
60.497
59.9359
59.9503
60.328
60.914
60.707
59.9892
59.9638
59.9886
60.200
60.668
60.202
59.9281
59.9131
59.9720
60.568
60.982
60.338
59.9862
60.100
60.570
60.965
60.282
59.9256
59.9254
59.9949
60.595
60.1071
60.658
60.262
60.267
60.760
60.1554
60.1118
59.9839
59.9737
60.632
60.1297
60.1459
60.762
60.286
60.314
60.624
60.1174
60.1039
60.19
59.9647
60.245
60.981
60.1474
60.978
60.395
60.468
60.873
60.1312
60.901
59.9542
59.9112
59.9771
60.438
60.967
60.748
60.174
59.9894
60.93
60.842
60.1071
59.9854
59.9136
59.9692
60.512
60.898
60.312
59.9556
59.9470
59.9751
60.200
60.521
59.9640
59.8886
59.9145
59.9885
60.678
60.645
59.9952
