=~=~=~=~=~=~=~=~=~=~=~= PuTTY log 2025.04.16 15:12:17 =~=~=~=~=~=~=~=~=~=~=~=




Speed (Hz)
59.6503
59.6600
59.7239
59.8486
60.175
60.1707
60.2745
60.3537
60.3933
60.3915
60.3642
60.3397
60.3144
60.2699
60.2076
60.1744
60.1840
60.2092
60.2420
60.2966
60.3647
60.4303
60.4944
60.5255
60.5243
60.5015
60.4713
60.4309
60.3773
60.3248
60.2703
60.2024
60.1483
60.1445
60.1602
60.1757
60.2166
60.2946
60.3729
60.4161
60.4200
60.4062
60.3641
60.2849
60.2021
60.1295
60.466
59.9464
59.8740
59.8430
59.8302
59.8297
59.8515
59.8991
59.9493
59.9976
60.173
59.9993
59.9474
59.9044
59.8446
59.7742
59.7001
59.6333
59.5474
59.4677
59.4245
59.4230
59.4290
59.4564
59.5283
59.6219
59.7048
59.7441
59.7572
59.7517
59.7212
59.6708
59.6430
59.6126
59.5649
59.5197
59.5057
59.5368
59.5805
59.6375
59.7215
59.8260
59.9274
60.121
60.651
60.799
60.830
60.845
60.582
60.180
59.9874
59.9526
59.9048
59.8788
59.8940
59.9231
59.9573
60.312
60.1353
60.2346
60.2955
60.3260
60.3362
60.3132
60.2502
60.1907
60.1274
60.621
59.9709
59.9129
59.8946
59.8903
59.8939
59.9237
59.9734
60.236
60.625
60.755
60.494
60.4
59.9623
59.9045
59.8340
59.7701
59.7064
59.6206
59.5467
59.5182
59.5178
59.5297
59.5645
59.6418
59.7392
59.8128
59.8484
59.8612
59.8603
59.8205
59.7777
59.7369
59.6952
59.6438
59.5916
59.5864
59.6090
59.6494
59.7014
59.7933
59.8894
59.9877
60.695
60.1146
60.1218
60.1296
60.1255
60.1066
60.802
60.565
60.207
59.9699
59.9588
59.9744
60.94
60.438
60.1171
60.2181
60.3022
60.3480
60.3735
60.3651
60.3226
60.2543
60.1906
60.1301
60.595
59.9765
59.9297
59.9222
59.9223
59.9366
59.9721
60.329
60.849
60.1296
60.1325
60.1038
60.632
60.126
59.9453
59.8730
59.7998
59.7262
59.6366
59.5712
59.5467
59.5480
59.5625
59.6104
59.6957
59.7919
59.8577
59.8826
59.8978
59.8908
59.8492
59.8048
59.7743
59.7366
59.6845
59.6462
59.6608
59.6802
59.7249
59.7877
59.8820
59.9770
60.693
60.1332
60.1534
60.1586
60.1542
60.1329
60.1061
60.720
60.515
59.9978
59.9551
59.9593
59.9841
60.175
60.621
60.1542
60.2559
60.3393
60.3746
60.3907
60.3804
60.3270
60.2566
60.1923
60.1307
60.494
59.9669
59.9321
59.9238
59.9228
59.9356
59.9744
60.270
60.726
60.989
60.950
60.642
60.199
59.9640
59.8988
59.8333
59.7723
59.7000
59.6219
59.5691
59.5595
59.5607
59.5841
59.6464
59.7394
59.8230
59.8710
59.8907
59.8843
59.8599
59.8136
59.7755
59.7343
59.6847
59.6254
59.6044
59.6190
59.6496
59.6943
59.7631
59.8597
59.9552
60.457
60.1077
60.1275
60.1336
60.1283
60.1209
60.915
60.637
60.356
59.9820
59.9460
59.9516
59.9790
60.29
60.609
60.1496
60.2479
60.3100
60.3379
60.3450
60.3286
60.2745
60.2196
60.1750
60.1115
60.307
59.9635
59.9373
59.9353
59.9349
59.9458
59.9916
60.378
60.857
60.1093
60.964
60.532
60.7
59.9458
59.8824
59.8133
59.7533
59.6718
59.5927
59.5481
59.5392
59.5479
59.5714
59.6496
59.7484
59.8344
59.8697
59.8900
59.8950
59.8688
59.8332
59.8015
59.7670
59.7210
59.6648
59.6558
59.6678
59.6993
59.7492
59.8241
59.9198
60.91
60.913
60.1427
60.1597
60.1686
60.1648
60.1544
60.1340
60.1146
60.819
60.335
60.166
60.354
60.694
60.1078
60.1867
60.2811
60.3770
60.4282
60.4492
60.4534
60.4218
60.3532
60.2868
60.2262
60.1581
60.638
60.143
60.27
60.2
60.71
60.427
60.943
60.1412
60.1845
60.1993
60.1765
60.1413
60.924
60.357
59.9784
59.9147
59.8501
59.7691
59.7038
59.6740
59.6747
59.6796
59.7226
59.8011
59.8903
59.9469
59.9791
59.9821
59.9753
59.9322
59.8893
59.8625
59.8266
59.7809
59.7415
59.7418
59.7648
59.8093
59.8732
59.9643
60.640
60.1583
60.2313
60.2615
60.2672
60.2704
60.2610
60.2376
60.2139
60.1917
60.1444
60.1031
60.952
60.1212
60.1498
60.1944
60.2853
60.3849
60.4629
60.5027
60.5199
60.5075
60.4597
60.4011
60.3450
60.2882
60.2093
60.1383
60.1040
60.888
60.867
60.1011
60.1426
60.1890
60.2305
60.2618
60.2493
60.2106
60.1672
60.1167
60.531
59.9932
59.9322
59.8604
59.7891
59.7442
59.7319
59.7410
59.7614
59.8232
59.9211
60.22
60.426
60.589
60.668
60.388
59.9938
59.9618
59.9215
59.8802
59.8192
59.7948
59.8096
59.8420
59.8831
59.9520
60.437
60.1412
60.2217
60.2792
60.2976
60.3025
60.3012
60.2873
60.2660
60.2453
60.2209
60.1673
60.1392
60.1491
60.1756
60.2061
60.2700
60.3629
60.4529
60.5064
60.5231
60.5248
60.4942
60.4308
60.3668
60.3072
60.2317
60.1521
60.932
60.657
60.580
60.574
60.846
60.1373
60.1926
60.2403
60.2510
60.2291
60.1835
60.1372
60.781
60.162
59.9448
59.8818
59.7942
59.7164
59.6783
59.6689
59.6772
59.7087
59.7948
59.8851
59.9537
59.9831
59.9953
59.9876
59.9494
59.9158
59.8861
59.8531
59.8038
59.7593
59.7568
59.7866
59.8281
59.8888
59.9764
60.724
60.1665
60.2423
60.2799
60.2877
60.2862
60.2771
60.2516
60.2126
60.1942
60.1419
60.1000
60.872
60.1075
60.1338
60.1788
60.2635
60.3639
60.4534
60.4877
60.5088
60.4991
60.4506
60.3838
60.3285
60.2662
60.1841
60.963
60.593
60.400
60.325
60.412
60.718
60.1227
60.1654
60.1961
60.1899
60.1496
60.1010
60.418
59.9844
59.9277
59.8728
59.8106
59.7315
59.6743
59.6654
59.6742
59.6885
59.7433
59.8308
59.9163
59.9625
59.9815
59.9819
59.9546
59.9073
59.8609
59.8252
59.7898
59.7327
59.7087
59.7289
59.7575
59.8064
59.8735
59.9741
60.656
60.1590
60.2182
60.2327
60.2400
60.2392
60.2302
60.2060
60.1825
60.1608
60.1121
60.832
60.946
60.1279
60.1604
60.2125
60.3002
60.3981
60.4592
60.4783
60.4871
60.4659
60.4047
60.3342
60.2779
60.2122
60.1384
60.822
60.617
60.546
60.648
60.853
60.1322
60.1798
60.2213
60.2389
60.2201
60.1721
60.1195
60.469
59.9771
59.9037
59.8412
59.7605
59.6852
59.6442
59.6363
59.6397
59.6730
59.7516
59.8497
59.9270
59.9618
59.9763
59.9735
59.9379
59.8862
59.8508
59.8047
59.7658
59.7161
59.7090
59.7308
59.7647
59.8181
59.8932
59.9892
60.805
60.1561
60.1988
60.2085
60.2010
60.1893
60.1661
60.1447
60.1203
60.798
60.332
60.219
60.412
60.712
60.1077
60.1809
60.2795
60.3694
60.4120
60.4304
60.4277
60.3892
60.3227
60.2588
60.1982
60.1346
60.463
60.3
59.9867
59.9784
59.9918
60.245
60.732
60.1214
60.1597
60.1656
60.1347
60.908
60.328
59.9736
59.9079
59.8490
59.7919
59.7163
59.6592
59.6336
59.6378
59.6466
59.6833
59.7622
59.8504
59.9063
59.9376
59.9411
59.9251
59.8812
59.8369
59.8053
59.7687
59.7203
59.6885
59.6914
59.7229
59.7644
59.8268
59.9217
60.147
60.994
60.1637
60.1893
60.1890
60.1854
60.1741
60.1478
60.1139
60.838
60.395
59.9993
60.2
60.250
60.545
60.983
60.1828
60.2879
60.3642
60.3971
60.4110
60.4013
60.3529
60.2911
60.2330
60.1681
60.910
60.206
59.9845
59.9807
59.9766
60.16
60.461
60.1010
60.1464
60.1763
60.1604
60.1184
60.713
60.76
59.9394
59.8685
59.8124
59.7466
59.6675
59.6209
59.6081
59.6217
59.6477
59.7061
59.7982
59.8790
59.9214
59.9385
59.9386
59.9098
59.8666
59.8244
59.7908
59.7474
59.6865
59.6604
59.6712
59.7005
59.7398
59.8084
59.9010
59.9865
60.795
60.1312
60.1479
60.1541
60.1508
60.1319
60.1076
60.826
60.611
60.171
59.9875
60.7
60.259
60.607
60.1104
60.2004
60.2963
60.3556
60.3833
60.3838
60.3552
60.2872
60.2189
60.1625
60.969
60.148
59.9454
59.9276
59.9214
59.9282
59.9511
60.6
60.477
60.963
60.1213
60.1042
60.612
60.101
59.9516
59.8955
59.8239
59.7703
59.6887
59.6126
59.5687
59.5583
59.5619
59.5825
59.6444
59.7365
59.8096
59.8418
59.8570
59.8514
59.8150
59.7575
59.7301
59.6988
59.6549
59.6023
59.5911
59.6166
59.6609
59.7170
59.7930
59.8911
59.9832
60.648
60.1115
60.1215
60.1201
60.1088
60.816
60.543
60.260
59.9970
59.9548
59.9367
59.9624
59.9923
60.290
60.1048
60.1957
60.2857
60.3326
60.3555
60.3493
60.3146
60.2513
60.1959
60.1322
60.640
59.9825
59.9265
59.9046
59.8978
59.9050
59.9276
59.9763
60.200
60.527
60.561
60.298
59.9880
59.9306
59.8781
59.8176
59.7580
59.6954
59.6236
59.5558
59.5268
59.5344
59.5458
59.5800
59.6707
59.7637
59.8318
59.8513
59.8574
59.8442
59.7981
59.7540
59.7245
59.6870
59.6369
59.5922
59.5896
59.6166
59.6598
59.7241
59.8119
59.9056
59.9941
60.638
60.1061
60.1154
60.1215
60.1182
60.974
60.704
60.478
60.98
59.9719
59.9593
59.9856
60.176
60.523
60.1333
60.2348
60.3171
60.3632
60.3753
60.3649
60.3226
60.2536
60.1995
60.1397
60.667
59.9897
59.9519
59.9340
59.9326
59.9420
59.9853
60.437
60.882
60.1260
60.1224
60.782
60.321
59.9726
59.9127
59.8413
59.7773
59.7130
59.6309
59.5707
59.5476
59.5559
59.5778
59.6321
59.7191
59.8050
59.8572
59.8776
59.8872
59.8748
59.8253
59.7792
59.7529
59.7099
59.6617
59.6321
59.6468
59.6762
59.7192
59.7768
59.8684
59.9641
60.588
60.1253
60.1460
60.1471
60.1424
60.1236
60.905
60.618
60.413
59.9987
59.9642
59.9768
60.30
60.410
60.983
60.1910
60.2936
60.3674
60.4000
60.4024
60.3857
60.3202
60.2523
60.1840
60.1108
60.323
59.9518
59.9178
59.9097
59.9175
59.9353
59.9882
60.323
60.844
60.1147
60.1076
60.730
60.216
59.9633
59.8952
59.8283
59.7719
59.7014
59.6259
59.5818
59.5758
59.5840
59.6089
59.6749
59.7677
59.8412
59.8873
59.9028
59.8973
59.8666
59.8197
59.7874
59.7491
59.7130
59.6655
59.6544
59.6769
59.7083
59.7653
59.8478
59.9508
60.458
60.1373
60.1874
60.2048
60.2077
60.2044
60.1818
60.1517
60.1174
60.903
60.384
60.77
60.198
60.533
60.869
60.1550
60.2540
60.3548
60.4159
60.4480
60.4568
60.4334
60.3811
60.3271
60.2617
60.1909
60.1083
60.534
60.288
60.237
60.229
60.495
60.975
60.1453
60.1909
60.2043
60.1803
60.1320
60.775
60.132
59.9440
59.8726
59.8090
59.7228
59.6386
59.6021
59.5987
59.6075
59.6453
59.7294
59.8273
59.9048
59.9418
59.9551
59.9526
59.9162
59.8710
59.8306
59.7985
59.7445
59.6968
59.6825
59.7073
59.7388
59.7976
59.8798
59.9711
60.609
60.1478
60.1877
60.2005
60.2047
60.2012
60.1820
60.1571
60.1382
60.1068
60.653
60.557
60.797
60.1120
60.1484
60.2288
60.3300
60.4164
60.4629
60.4741
60.4680
60.4260
60.3589
60.2989
60.2359
60.1639
60.739
60.254
60.42
59.9992
60.119
60.522
60.1047
60.1588
60.1997
60.2075
60.1810
60.1445
60.863
60.210
59.9449
59.8815
59.8085
59.7205
59.6546
59.6300
59.6206
59.6342
59.6901
59.7841
59.8815
59.9391
59.9566
59.9670
59.9486
59.8953
59.8556
59.8217
59.7824
59.7348
59.7031
59.7133
59.7410
59.7866
59.8523
59.9497
60.465
60.1444
60.2031
60.2340
60.2310
60.2248
60.2096
60.1769
60.1441
60.1145
60.671
60.245
60.272
60.576
60.938
60.1469
60.2394
60.3376
60.4100
60.4407
60.4541
60.4422
60.3926
60.3266
60.2728
60.2141
60.1315
60.589
60.185
60.120
60.105
60.235
60.736
60.1232
60.1691
60.1924
60.1796
60.1327
60.918
60.307
59.9658
59.8977
59.8341
59.7605
59.6869
59.6438
59.6393
59.6541
59.6730
59.7419
59.8373
59.9165
59.9591
59.9681
59.9603
59.9254
59.8728
59.8322
59.7936
59.7472
59.6920
59.6771
59.6923
59.7231
59.7686
59.8443
59.9394
60.394
60.1205
60.1715
60.1878
60.1878
60.1836
60.1653
60.1355
60.1047
60.731
60.232
59.9929
60.71
60.351
60.653
60.1317
60.2248
60.3163
60.3713
60.3976
60.3938
60.3680
60.2978
60.2380
60.1740
60.1066
60.165
59.9574
59.9386
59.9382
59.9454
59.9792
60.372
60.916
60.1370
60.1514
60.1302
60.921
60.445
59.9891
59.9152
59.8373
59.7692
59.6790
59.5963
59.5579
59.5496
59.5527
59.5791
59.6616
59.7619
59.8346
59.8762
59.8891
59.8987
59.8701
59.8334
59.8023
59.7647
59.7161
59.6698
59.6659
59.6829
59.7222
59.7779
59.8613
59.9577
60.554
60.1289
60.1691
60.1730
60.1770
60.1666
60.1475
60.1165
60.975
60.609
60.198
60.28
60.219
60.554
60.962
60.1809
60.2825
60.3735
60.4170
60.4337
60.4292
60.3867
60.3148
60.2589
60.1958
60.1179
60.320
59.9849
59.9612
59.9498
59.9574
59.9891
60.471
60.990
60.1428
60.1470
60.1176
60.768
60.274
59.9632
59.8983
59.8366
59.7681
59.6819
59.6179
59.5899
59.5928
59.5970
59.6422
59.7254
59.8098
59.8636
59.8887
59.8899
59.8773
59.8352
59.7924
59.7620
59.7162
59.6665
59.6366
59.6488
59.6782
59.7249
59.7963
59.8899
59.9866
60.789
60.1406
60.1733
60.1839
60.1810
60.1689
60.1408
60.1125
60.857
60.359
60.3
59.9935
60.162
60.429
60.865
60.1729
60.2733
60.3512
60.3836
60.4002
60.3891
60.3410
60.2793
60.2191
60.1613
60.861
60.105
59.9827
59.9758
59.9686
59.9864
60.303
60.767
60.1261
60.1574
60.1494
60.1152
60.631
60.37
59.9420
59.8640
59.8035
59.7269
59.6431
59.5960
59.5835
59.5934
59.6200
59.6878
59.7887
59.8793
59.9336
59.9545
59.9609
59.9347
59.8881
59.8551
59.8156
59.7630
59.7048
59.6844
59.6999
59.7319
59.7797
59.8482
59.9429
60.332
60.1195
60.1743
60.1909
60.1970
60.1882
60.1770
60.1585
60.1356
60.1026
60.549
60.293
60.414
60.781
60.1144
60.1786
60.2800
60.3753
60.4287
60.4540
60.4498
60.4212
60.3550
60.2924
60.2318
60.1583
60.709
60.38
59.9813
59.9779
59.9890
60.129
60.668
60.1197
60.1753
60.1874
60.1732
60.1284
60.812
60.195
59.9447
59.8723
59.8091
59.7223
59.6447
59.6022
59.5908
59.6007
59.6282
59.7072
59.8065
59.8807
59.9160
59.9329
59.9340
59.8979
59.8627
59.8297
59.7921
59.7423
59.6930
59.6865
59.7153
59.7577
59.8155
59.8911
59.9879
60.799
60.1636
60.2020
60.2055
60.2020
60.1885
60.1663
60.1356
60.1019
60.540
60.131
59.9983
60.171
60.444
60.833
60.1622
60.2593
60.3523
60.3942
60.4125
60.4099
60.3741
60.3099
60.2544
60.1888
60.1173
60.330
59.9848
59.9640
59.9551
59.9561
59.9776
60.230
60.661
60.1047
60.1070
60.671
60.230
59.9733
59.9103
59.8442
59.7794
59.7097
59.6340
59.5732
59.5541
59.5599
59.5728
59.6194
59.7045
59.7992
59.8588
59.8863
59.8870
59.8680
59.8209
59.7824
59.7442
59.7010
59.6486
59.6151
59.6244
59.6505
59.6934
59.7575
59.8513
59.9471
60.485
60.1180
60.1490
60.1631
60.1609
60.1503
60.1272
60.1056
60.892
60.412
60.54
60.88
60.349
60.697
60.1129
60.1978
60.2891
60.3609
60.3920
60.3980
60.3909
60.3397
60.2794
60.2259
60.1667
60.895
60.186
59.9812
59.9742
59.9728
59.9916
60.378
60.900
60.1459
60.1748
60.1713
60.1214
60.758
60.128
59.9473
59.8766
59.8213
59.7472
59.6630
59.6130
59.6012
59.6069
59.6254
59.6947
59.7883
59.8766
59.9176
59.9347
59.9357
59.9183
59.8689
59.8358
59.8038
59.7645
59.7138
59.6958
59.7182
59.7515
59.8059
59.8784
59.9719
60.657
60.1515
60.2023
60.2253
60.2265
60.2260
60.2101
60.1837
60.1568
60.1306
60.915
60.730
60.899
60.1297
60.1633
60.2320
60.3313
60.4336
60.4918
60.5139
60.5155
60.4846
60.4185
60.3512
60.2879
60.2203
60.1426
60.870
60.746
60.688
60.773
60.1017
60.1518
60.2037
60.2490
60.2604
60.2370
60.1951
60.1417
60.782
60.53
59.9354
59.8806
59.8075
59.7403
59.7195
59.7228
59.7257
59.7611
59.8413
59.9364
59.9978
60.230
60.281
60.164
59.9725
59.9211
59.8806
59.8443
59.7956
59.7545
59.7653
59.7993
59.8442
59.9055
59.9957
60.915
60.1830
60.2538
60.2883
60.2940
60.2889
60.2689
60.2412
60.2160
60.1917
60.1439
60.1029
60.966
60.1236
60.1571
60.1874
60.2688
60.3683
60.4432
60.4859
60.5018
60.4938
60.4380
60.3726
60.3154
60.2579
60.1821
60.1017
60.603
60.461
60.422
60.583
60.945
60.1394
60.1855
60.2146
60.2089
60.1647
60.1177
60.543
59.9929
59.9269
59.8683
59.8020
59.7208
59.6641
59.6414
59.6480
59.6668
59.7216
59.8133
59.9021
59.9527
59.9723
59.9753
59.9606
59.9099
59.8691
59.8355
59.7912
59.7325
59.7014
59.7118
59.7392
59.7781
59.8415
59.9272
60.236
60.1104
60.1719
60.1885
60.1933
60.1936
60.1733
60.1483
60.1172
60.967
60.515
60.205
60.270
60.580
60.859
60.1367
60.2307
60.3271
60.3892
60.4140
60.4161
60.3963
60.3365
60.2649
60.1964
60.1266
60.507
59.9783
59.9551
59.9457
59.9511
59.9771
60.297
60.877
60.1279
60.1515
60.1362
60.951
60.398
59.9775
59.9110
59.8414
59.7802
59.7028
59.6292
59.5889
59.5808
59.5884
59.6075
59.6775
59.7682
59.8472
59.8861
59.9025
59.8985
59.8685
59.8181
59.7914
59.7580
59.7198
59.6744
59.6677
59.6917
59.7378
59.7924
59.8771
59.9750
60.709
60.1529
60.2019
60.2097
60.2067
60.1937
60.1707
60.1389
60.1100
60.786
60.292
60.89
60.277
60.758
60.1113
60.1798
60.2761
60.3704
60.4176
60.4360
60.4377
60.4004
60.3339
60.2693
60.2066
60.1404
60.580
60.13
59.9832
59.9773
59.9853
60.79
60.643
60.1178
60.1526
60.1545
60.1259
60.792
60.236
59.9584
59.8928
59.8323
59.7774
59.6982
59.6341
59.6118
59.6112
59.6262
59.6672
59.7478
59.8456
59.9063
59.9225
59.9308
59.9178
59.8698
59.8245
59.7871
59.7497
59.6973
59.6519
59.6526
59.6803
59.7134
59.7716
59.8623
59.9558
60.454
60.1194
60.1541
60.1625
60.1612
60.1506
60.1233
60.894
60.687
60.268
59.9853
59.9819
60.26
60.348
60.686
60.1464
60.2502
60.3296
60.3646
60.3735
60.3653
60.3168
60.2528
60.1969
60.1341
60.643
59.9955
59.9607
59.9540
59.9660
59.9868
60.320
60.832
60.1330
60.1679
60.1605
60.1278
60.808
60.283
59.9596
59.8899
59.8320
59.7592
59.6835
59.6242
59.6010
59.6024
59.6257
59.6859
59.7776
59.8700
59.9177
59.9437
59.9481
59.9224
59.8750
59.8365
59.8092
59.7724
59.7209
59.6937
59.7094
59.7394
59.7886
59.8478
59.9384
60.258
60.1058
60.1637
60.1827
60.1862
60.1766
60.1532
60.1244
60.918
60.702
60.265
60.23
60.90
60.467
60.837
60.1404
60.2363
60.3420
60.4090
60.4358
60.4377
60.4198
60.3526
60.2850
60.2223
60.1552
60.759
60.41
59.9729
59.9640
59.9686
59.9920
60.361
60.879
60.1305
60.1528
60.1388
60.954
60.544
59.9933
59.9361
59.8733
59.8200
59.7540
59.6762
59.6368
59.6342
59.6380
59.6565
59.7228
59.8200
59.8892
59.9210
59.9311
59.9199
59.8799
59.8369
59.7998
59.7684
59.7286
59.6816
59.6720
59.7006
59.7382
59.7966
59.8711
59.9642
60.547
60.1340
60.1806
60.1880
60.1856
60.1744
60.1570
60.1247
60.970
60.592
60.103
59.9880
59.9994
60.303
60.587
60.1282
60.2241
60.3212
60.3771
60.3966
60.3978
60.3621
60.2994
60.2469
60.1864
60.1182
60.360
59.9751
59.9558
59.9498
59.9525
59.9746
60.242
60.683
60.1072
60.1180
60.861
60.449
59.9871
59.9149
59.8418
59.7690
59.7072
59.6231
59.5546
59.5273
59.5245
59.5332
59.5672
59.6467
59.7408
59.8112
59.8444
59.8614
59.8605
59.8214
59.7825
59.7507
59.7134
59.6669
59.6242
59.6158
59.6387
59.6738
59.7277
59.8066
59.9004
59.9939
60.731
60.1173
60.1303
60.1340
60.1284
60.1094
60.832
60.696
60.384
59.9978
59.9849
60.113
60.418
60.801
60.1610
60.2627
60.3555
60.4010
60.4152
60.4150
60.3678
60.2996
60.2354
60.1708
60.981
60.109
59.9665
59.9488
59.9460
59.9629
60.88
60.626
60.1186
60.1592
60.1658
60.1362
60.901
60.353
59.9791
59.9106
59.8457
59.7775
59.6915
59.6309
59.6131
59.6095
59.6250
59.6733
59.7681
59.8612
59.9133
59.9381
59.9526
59.9420
59.8930
59.8547
59.8252
59.7840
59.7278
59.6942
59.7083
59.7468
59.7909
59.8637
59.9603
60.633
60.1584
60.2238
60.2467
60.2524
60.2468
60.2270
60.2027
60.1746
60.1509
60.978
60.624
60.579
60.798
60.1135
60.1661
60.2670
60.3720
60.4443
60.4808
60.4966
60.4890
60.4382
60.3796
60.3225
60.2555
60.1707
60.997
60.683
60.577
60.510
60.709
60.1127
60.1636
60.2115
60.2342
60.2267
60.1803
60.1324
