=~=~=~=~=~=~=~=~=~=~=~= PuTTY log 2025.04.16 15:18:44 =~=~=~=~=~=~=~=~=~=~=~=




Speed (Hz)
60.280
60.4318
60.9727
61.954
60.9775
60.8711
60.8270
60.8240
60.8241
60.7798
60.7209
60.6831
60.6939
60.6974
60.5943
60.4863
60.4841
60.5315
60.5465
60.5041
60.4362
60.3866
60.3571
60.3580
60.3572
60.2743
60.1652
60.1203
60.1371
60.1621
60.1432
60.721
60.203
60.2
60.78
60.62
59.9110
59.7815
59.7316
59.7565
59.7872
59.8153
59.7970
59.7472
59.7082
59.7034
59.7426
59.7284
59.6310
59.5892
59.6454
59.7196
59.7472
59.7057
59.6690
59.6646
59.6911
59.7302
59.7455
59.6921
59.6534
59.6839
59.7559
59.8326
59.8428
59.8250
59.8348
59.8840
59.9360
59.9410
59.8658
59.8298
59.8821
59.9490
60.78
60.483
60.456
60.282
60.421
60.945
60.1244
60.414
59.9786
60.201
60.890
60.1189
60.970
60.500
60.246
60.204
60.514
60.713
59.9982
59.9231
59.9106
59.9539
59.9916
59.9758
59.9243
59.8982
59.8983
59.9187
59.9079
59.8019
59.6915
59.6736
59.7144
59.7542
59.7667
59.7348
59.6962
59.6643
59.6763
59.7170
59.6757
59.5825
59.5687
59.6421
59.7080
59.7225
59.6845
59.6630
59.6788
59.7111
59.7543
59.7588
59.6952
59.6701
59.7187
59.7965
59.8665
59.8631
59.8415
59.8576
59.9069
59.9521
59.9317
59.8508
59.8343
59.8868
59.9494
60.151
60.450
60.332
60.185
60.395
60.1059
60.1145
60.247
59.9828
60.447
60.1102
60.1316
60.946
60.524
60.352
60.357
60.655
60.764
59.9992
59.9251
59.9235
59.9670
59.9980
59.9730
59.9209
59.8950
59.9011
59.9266
59.9132
59.7998
59.7039
59.7040
59.7496
59.7900
59.8068
59.7874
59.7487
59.7273
59.7523
59.7895
59.7319
59.6514
59.6622
59.7451
59.8037
59.8014
59.7610
59.7454
59.7591
59.8035
59.8536
59.8397
59.7855
59.7828
59.8399
59.9238
59.9856
59.9775
59.9724
60.41
60.668
60.1144
60.724
60.78
60.149
60.804
60.1462
60.2027
60.2144
60.2082
60.2052
60.2379
60.2938
60.2621
60.1734
60.1642
60.2360
60.3005
60.3135
60.2696
60.2369
60.2204
60.2316
60.2650
60.2436
60.1520
60.996
60.1219
60.1608
60.1825
60.1421
60.945
60.834
60.979
60.1130
60.544
59.9252
59.8568
59.8750
59.9203
59.9572
59.9432
59.9001
59.8570
59.8479
59.8926
59.9092
59.8250
59.7647
59.8072
59.8864
59.9280
59.8987
59.8663
59.8662
59.8858
59.9272
59.9582
59.9170
59.8704
59.8846
59.9506
60.297
60.572
60.339
60.334
60.748
60.1285
60.1446
60.694
60.216
60.537
60.1248
60.1914
60.2337
60.2300
60.2178
60.2257
60.2755
60.3106
60.2382
60.1684
60.2024
60.2794
60.3153
60.2916
60.2361
60.2048
60.1943
60.2148
60.2411
60.1750
60.867
60.665
60.991
60.1356
60.1262
60.650
60.276
60.266
60.426
60.394
59.9433
59.8316
59.8101
59.8471
59.8830
59.9010
59.8769
59.8369
59.7980
59.8047
59.8484
59.8169
59.7203
59.6935
59.7564
59.8158
59.8314
59.7921
59.7683
59.7754
59.8037
59.8507
59.8601
59.7958
59.7698
59.8134
59.8915
59.9592
59.9605
59.9442
59.9589
60.81
60.579
60.360
59.9546
59.9365
59.9872
60.516
60.1114
60.1357
60.1299
60.1170
60.1308
60.1878
60.1951
60.1049
60.664
60.1279
60.1979
60.2264
60.1897
60.1521
60.1414
60.1449
60.1737
60.1791
60.993
60.263
60.277
60.664
60.937
60.719
60.202
59.9922
60.18
60.207
59.9930
59.8675
59.7786
59.7893
59.8346
59.8693
59.8781
59.8486
59.8168
59.7990
59.8265
59.8652
59.7993
59.7127
59.7312
59.8160
59.8744
59.8709
59.8276
59.8157
59.8288
59.8647
59.9091
59.8906
59.8351
59.8270
59.8858
59.9666
60.226
60.121
60.70
60.374
60.968
60.1458
60.954
60.303
60.428
60.1134
60.1810
60.2408
60.2501
60.2317
60.2310
60.2700
60.3210
60.2835
60.1945
60.1927
60.2646
60.3158
60.3172
60.2678
60.2311
60.2193
60.2343
60.2686
60.2417
60.1517
60.1042
60.1299
60.1753
60.1928
60.1480
60.1065
60.967
60.1125
60.1200
60.540
59.9202
59.8615
59.8923
59.9348
59.9712
59.9566
59.9201
59.8850
59.8798
59.9135
59.9043
59.8105
59.7559
59.8086
59.8792
59.9162
59.8895
59.8614
59.8635
59.8870
59.9233
59.9423
59.8979
59.8525
59.8708
59.9468
60.292
60.513
60.201
60.171
60.566
60.1131
60.1161
60.318
59.9887
60.228
60.853
60.1526
60.1953
60.1882
60.1581
60.1643
60.2231
60.2622
60.1873
60.1221
60.1558
60.2279
60.2630
60.2466
60.2060
60.1836
60.1788
60.1942
60.2146
60.1497
60.600
60.333
60.689
60.1044
60.945
60.381
60.10
59.9944
60.116
60.71
59.9113
59.8054
59.7810
59.8192
59.8587
59.8786
59.8594
59.8262
59.7945
59.8043
59.8497
59.8167
59.7188
59.6958
59.7660
59.8295
59.8460
59.8012
59.7802
59.7910
59.8218
59.8622
59.8678
59.8095
59.7839
59.8338
59.9142
59.9879
59.9947
59.9768
59.9973
60.502
60.1016
60.767
59.9955
59.9839
60.400
60.1080
60.1750
60.1967
60.1857
60.1696
60.1898
60.2514
60.2540
60.1642
60.1264
60.1857
60.2557
60.2755
60.2370
60.1993
60.1859
60.1960
60.2242
60.2190
60.1346
60.707
60.807
60.1229
60.1545
60.1278
60.750
60.535
60.560
60.735
60.474
59.9214
59.8270
59.8309
59.8711
59.9092
59.9182
59.8847
59.8487
59.8309
59.8646
59.8917
59.8197
59.7386
59.7594
59.8419
59.8923
59.8814
59.8437
59.8370
59.8526
59.8901
59.9353
59.9072
59.8503
59.8496
59.9153
59.9941
60.335
60.148
60.81
60.450
60.1022
60.1355
60.704
60.34
60.279
60.918
60.1507
60.2036
60.2108
60.2046
60.2046
60.2437
60.2940
60.2489
60.1680
60.1751
60.2429
60.2856
60.2807
60.2267
60.1935
60.1761
60.1888
60.2217
60.1857
60.971
60.530
60.736
60.1109
60.1279
60.833
60.421
60.323
60.407
60.508
59.9804
59.8536
59.7952
59.8253
59.8666
59.9003
59.8884
59.8592
59.8228
59.8191
59.8585
59.8550
59.7576
59.7033
59.7539
59.8280
59.8572
59.8143
59.7800
59.7798
59.8010
59.8437
59.8770
59.8328
59.7884
59.8131
59.8876
59.9681
59.9889
59.9699
59.9736
60.136
60.662
60.758
59.9897
59.9413
59.9778
60.450
60.1071
60.1443
60.1406
60.1204
60.1227
60.1729
60.2041
60.1300
60.669
60.1025
60.1753
60.2127
60.1937
60.1463
60.1183
60.1112
60.1411
60.1683
60.1048
60.167
59.9998
60.418
60.823
60.781
60.197
59.9810
59.9744
59.9908
59.9872
59.8897
59.7758
59.7498
59.7869
59.8251
59.8530
59.8340
59.7985
59.7753
59.7904
59.8354
59.8050
59.7120
59.6975
59.7664
59.8298
59.8468
59.8087
59.7949
59.8076
59.8382
59.8821
59.8859
59.8332
59.8248
59.8790
59.9552
60.253
60.286
60.162
60.350
60.891
60.1463
60.1280
60.538
60.462
60.1063
60.1734
60.2432
60.2694
60.2634
60.2548
60.2889
60.3509
60.3457
60.2544
60.2273
60.2856
60.3437
60.3662
60.3259
60.2853
60.2665
60.2697
60.3018
60.3063
60.2315
60.1678
60.1776
60.2254
60.2548
60.2208
60.1713
60.1518
60.1596
60.1737
60.1318
60.48
59.9285
59.9407
59.9890
60.291
60.306
59.9949
59.9569
59.9390
59.9726
59.9919
59.9124
59.8411
59.8700
59.9426
59.9846
59.9602
59.9212
59.9200
59.9408
59.9854
60.297
59.9931
59.9387
59.9504
60.168
60.936
60.1265
60.1109
60.1050
60.1402
60.1921
60.2111
60.1402
60.790
60.1039
60.1687
60.2264
60.2734
60.2723
60.2565
60.2606
60.3068
60.3563
60.2881
60.2082
60.2182
60.2905
60.3363
60.3255
60.2756
60.2410
60.2237
60.2373
60.2642
60.2125
60.1183
60.839
60.1153
60.1427
60.1409
60.818
60.371
60.235
60.303
60.304
59.9409
59.8211
59.7754
59.8075
59.8551
59.8924
59.8704
59.8254
59.7920
59.7946
59.8357
59.8145
59.7095
59.6660
59.7237
59.7915
59.8148
59.7773
59.7463
59.7462
59.7712
59.8128
59.8344
59.7799
59.7403
59.7709
59.8443
59.9211
59.9285
59.9044
59.9109
59.9612
60.158
60.187
59.9460
59.9134
59.9533
60.201
60.876
60.1210
60.1100
60.908
60.1030
60.1627
60.1815
60.950
60.361
60.799
60.1498
60.1779
60.1484
60.1100
60.899
60.890
60.1184
60.1355
60.672
59.9877
59.9760
60.198
60.601
60.442
59.9889
59.9549
59.9612
59.9870
59.9800
59.8656
59.7558
59.7385
59.7854
59.8233
59.8417
59.8113
59.7686
59.7426
59.7672
59.8155
59.7671
59.6826
59.6844
59.7600
59.8168
59.8275
59.7972
59.7875
59.8001
59.8368
59.8850
59.8771
59.8144
59.7950
59.8454
59.9261
59.9983
59.9927
59.9726
59.9969
60.474
60.924
60.637
59.9863
59.9830
60.472
60.1127
60.1722
60.1896
60.1807
60.1741
60.2061
60.2688
60.2556
60.1662
60.1393
60.2025
60.2687
60.2790
60.2353
60.1978
60.1787
60.1814
60.2135
60.2045
60.1145
60.522
60.638
60.1073
60.1352
60.971
60.465
60.290
60.395
60.553
60.89
59.8844
59.8150
59.8329
59.8768
59.9137
59.9166
59.8868
59.8477
59.8309
59.8615
59.8848
59.8010
59.7215
59.7429
59.8249
59.8734
59.8610
59.8156
59.8024
59.8187
59.8599
59.9022
59.8681
59.8151
59.8240
59.8930
59.9743
60.197
60.13
59.9956
60.298
60.788
60.1102
60.483
59.9859
60.9
60.624
60.1191
60.1688
60.1770
60.1599
60.1583
60.2013
60.2486
60.1920
60.1051
60.1186
60.1976
60.2447
60.2347
60.1878
60.1589
60.1455
60.1617
60.1974
60.1559
60.660
60.320
60.555
60.942
60.1081
60.617
60.196
60.86
60.194
60.222
59.9438
59.8172
59.7697
59.7977
59.8377
59.8722
59.8634
59.8282
59.7908
59.7945
59.8391
59.8369
59.7450
59.7067
59.7623
59.8294
59.8592
59.8270
59.7979
59.7947
59.8195
59.8682
59.8924
59.8391
59.7977
59.8270
59.8999
59.9779
59.9910
59.9741
59.9859
60.343
60.911
60.929
60.133
59.9823
60.262
60.942
60.1623
60.2058
60.2010
60.1807
60.1948
60.2564
60.2824
60.1941
60.1353
60.1797
60.2504
60.2738
60.2487
60.2000
60.1722
60.1687
60.1961
60.2130
60.1387
60.591
60.551
60.955
60.1324
60.1183
60.659
60.321
60.282
60.466
60.478
59.9449
59.8385
59.8205
59.8555
59.8887
59.9110
59.8878
59.8489
59.8171
59.8332
59.8720
59.8205
59.7263
59.7176
59.7943
59.8538
59.8582
59.8139
59.8002
59.8099
59.8448
59.8947
59.8956
59.8381
59.8179
59.8670
59.9523
60.235
60.119
59.9913
60.173
60.735
60.1192
60.894
60.128
60.42
60.605
60.1192
60.1866
60.2070
60.1910
60.1771
60.2046
60.2675
60.2551
60.1647
60.1396
60.2056
60.2704
60.2896
60.2503
60.2106
60.1968
60.2002
60.2291
60.2183
60.1299
60.678
60.780
60.1138
60.1363
60.978
60.456
60.262
60.327
60.427
60.91
59.8901
59.8155
59.8301
59.8735
59.9065
59.9102
59.8779
59.8408
59.8230
59.8505
59.8744
59.7837
59.7076
59.7374
59.8166
59.8646
59.8496
59.8046
59.7963
59.8117
59.8467
59.8827
59.8445
59.7816
59.7912
59.8556
59.9365
59.9777
59.9546
59.9471
59.9860
60.411
60.734
60.124
59.9512
59.9666
60.307
60.975
60.1516
60.1547
60.1330
60.1297
60.1733
60.2223
60.1613
60.780
60.895
60.1626
60.2072
60.2087
60.1585
60.1210
60.1042
60.1217
60.1548
60.1133
60.317
59.9980
60.292
60.727
60.829
60.406
60.15
59.9910
60.34
60.128
59.9403
59.8171
59.7679
59.7995
59.8408
59.8753
59.8598
59.8259
59.7941
59.7941
59.8353
59.8262
59.7332
59.6931
59.7574
59.8321
59.8659
59.8393
59.8134
59.8248
59.8525
59.8908
59.9171
59.8727
59.8320
59.8624
59.9391
60.169
60.288
60.84
60.157
60.616
60.1165
60.1215
60.457
60.134
60.668
60.1318
60.1945
60.2336
60.2309
60.2161
60.2270
60.2836
60.3102
60.2302
60.1741
60.2209
60.2991
60.3370
60.3073
60.2590
60.2322
60.2260
60.2555
60.2756
60.1981
60.1209
60.1122
60.1445
60.1765
60.1622
60.1157
60.918
60.971
60.1151
60.1060
59.9905
59.8863
59.8786
59.9231
59.9614
59.9711
59.9448
59.9129
59.8878
59.9044
59.9350
59.8743
59.7885
59.7860
59.8529
59.9083
59.9144
59.8720
59.8594
59.8638
59.8896
59.9338
59.9213
59.8596
59.8509
59.9084
59.9900
60.491
60.430
60.332
60.633
60.1090
60.1450
60.1023
60.288
60.266
60.833
60.1489
60.2057
60.2164
60.1984
60.1872
60.2213
60.2803
60.2537
60.1570
60.1347
60.2036
60.2611
60.2795
60.2318
60.1952
60.1760
60.1837
60.2172
60.2052
60.1195
60.597
60.713
60.1072
60.1272
60.839
60.386
60.139
60.240
60.341
59.9845
59.8502
59.7739
59.7896
59.8304
59.8651
59.8596
59.8224
59.7834
59.7761
59.8105
59.8239
59.7370
59.6738
59.7092
59.7845
59.8249
59.8055
59.7643
59.7588
59.7734
59.8129
59.8509
59.8165
59.7577
59.7576
59.8242
59.9112
59.9449
59.9194
59.9161
59.9595
60.147
60.394
59.9694
59.9100
59.9402
60.86
60.759
60.1276
60.1300
60.1157
60.1207
60.1673
60.2178
60.1560
60.769
60.928
60.1668
60.2082
60.1999
60.1520
60.1279
60.1205
60.1368
60.1656
60.1248
60.387
60.41
60.339
60.758
60.914
60.417
60.70
60.71
60.265
60.351
59.9649
59.8445
59.7969
59.8292
59.8717
59.9002
59.8855
59.8535
59.8218
59.8260
59.8677
59.8516
59.7609
59.7232
59.7880
59.8570
59.8839
59.8459
59.8229
59.8351
59.8725
59.9222
59.9464
59.8941
59.8631
59.9027
59.9790
60.555
60.656
60.412
60.486
60.991
60.1526
60.1524
60.719
60.432
60.898
60.1524
60.2138
60.2514
60.2473
60.2335
60.2508
60.3076
60.3275
60.2382
60.1843
60.2367
60.3098
60.3435
60.3110
60.2700
60.2481
60.2494
60.2781
60.2908
60.2119
60.1380
60.1375
60.1758
60.2029
60.1719
60.1208
60.903
60.981
60.1155
60.958
59.9790
59.8770
59.8652
59.9099
59.9496
59.9674
59.9448
59.9066
59.8812
59.9077
59.9547
59.8938
59.7975
59.8025
59.8808
59.9344
59.9348
59.8923
59.8749
59.8847
59.9125
59.9545
59.9260
59.8624
59.8524
59.9121
59.9963
60.542
60.356
60.162
60.416
60.960
60.1365
60.902
60.185
60.166
60.730
60.1402
60.1987
60.2124
60.1944
60.1831
60.2163
60.2727
60.2296
60.1305
60.1154
60.1852
60.2435
60.2485
60.1949
60.1500
60.1327
60.1404
60.1749
60.1583
60.735
60.228
60.367
60.749
60.949
60.485
60.12
59.9907
59.9996
60.48
59.9481
59.8237
59.7418
59.7550
59.8001
59.8382
59.8303
59.7905
59.7521
59.7395
59.7745
59.7945
59.7035
59.6321
59.6665
59.7395
59.7798
59.7655
59.7375
59.7350
59.7537
59.7904
59.8256
59.7887
59.7400
59.7518
59.8239
59.9049
59.9365
59.9128
59.9093
59.9501
60.45
60.243
59.9547
59.8994
59.9339
60.30
60.629
60.1105
60.1196
60.1070
60.1071
60.1578
60.2137
60.1581
60.774
60.955
60.1717
60.2161
60.2041
60.1539
60.1302
60.1245
60.1407
60.1648
60.1218
60.358
60.59
60.366
60.722
60.832
60.329
59.9907
59.9815
59.9993
60.46
59.9269
59.8030
59.7577
59.8002
59.8482
59.8840
59.8711
59.8391
59.8080
59.8091
59.8507
59.8340
59.7334
59.6916
59.7477
59.8179
59.8463
59.8090
59.7841
59.7915
59.8131
59.8550
59.8760
59.8194
59.7833
59.8198
59.8938
59.9732
59.9869
59.9696
59.9820
60.332
60.885
60.880
60.45
59.9666
60.117
60.749
60.1357
60.1656
60.1568
60.1374
60.1464
60.2031
60.2252
60.1402
60.877
60.1352
60.2117
60.2441
60.2112
60.1618
60.1352
60.1335
60.1525
60.1709
60.1018
60.201
60.105
60.510
60.855
60.746
60.243
59.9915
59.9929
60.44
59.9904
59.8777
59.7728
59.7524
59.7874
59.8259
59.8495
59.8215
59.7865
59.7612
59.7785
59.8174
59.7693
59.6808
59.6792
59.7514
59.8127
59.8197
59.7696
59.7572
59.7715
59.7995
59.8453
59.8350
59.7668
59.7510
59.8067
59.8919
59.9564
59.9454
59.9263
59.9465
59.9969
60.419
60.91
59.9273
59.9242
59.9840
60.522
60.1231
60.1514
60.1348
60.1218
60.1487
60.2118
60.1961
60.967
60.712
60.1360
60.1985
60.2143
60.1661
60.1235
60.1049
60.1162
60.1465
60.1416
60.562
59.9940
60.68
60.505
60.820
60.483
59.9990
59.9834
59.9920
60.59
59.9702
59.8496
59.7684
59.7799
59.8288
59.8695
59.8732
59.8429
59.8047
59.7889
59.8117
59.8380
59.7588
59.6820
59.7027
59.7831
59.8301
59.8196
59.7870
59.7808
59.7975
59.8337
59.8803
59.8575
59.8056
59.8093
59.8787
59.9639
60.113
59.9979
59.9926
60.227
60.827
60.1206
60.575
59.9955
60.141
60.774
60.1403
60.1957
60.2027
60.1933
60.1949
60.2396
60.2961
60.2438
60.1612
60.1718
60.2487
60.2966
60.2914
60.2493
60.2270
60.2155
60.2288
60.2633
60.2258
60.1400
60.1075
60.1371
60.1755
60.1836
60.1348
60.916
60.794
60.928
60.1059
60.299
59.9067
59.8600
59.8911
59.9309
59.9630
59.9472
59.9120
59.8785
59.8874
59.9321
59.9233
59.8272
59.7775
59.8350
59.9079
59.9361
59.9012
59.8653
59.8679
59.8912
59.9338
59.9450
59.8890
59.8490
59.8797
59.9518
60.278
60.458
60.225
60.310
60.830
60.1416
60.1404
60.577
60.261
60.713
60.1375
60.2021
60.2364
60.2320
60.2108
60.2275
60.2848
60.3027
60.2145
60.1623
60.2091
60.2733
60.2959
60.2639
60.2190
60.1937
60.1871
60.2193
60.2337
60.1569
60.757
60.754
60.1142
60.1463
60.1204
60.706
60.392
60.392
60.535
60.412
59.9263
59.8140
59.7995
59.8303
59.8669
59.8940
59.8647
59.8192
59.7867
59.7990
59.8311
59.7755
59.6840
59.6839
59.7517
59.8045
59.8132
59.7682
59.7503
59.7616
59.7963
59.8427
59.8407
59.7810
59.7605
59.8081
59.8846
59.9459
59.9347
59.9161
59.9362
59.9929
60.406
60.35
59.9208
59.9167
59.9802
60.497
60.1089
60.1239
60.1141
60.993
60.1300
60.1926
60.1858
60.947
60.641
60.1300
60.1917
60.2116
60.1704
60.1312
60.1084
60.1138
60.1482
60.1418
60.534
59.9906
59.9986
60.421
60.740
60.416
59.9944
59.9769
59.9907
60.100
59.9708
59.8479
59.7783
59.7939
59.8414
59.8820
59.8849
59.8569
59.8198
59.8044
59.8346
59.8640
59.7878
59.7179
59.7462
59.8202
59.8608
59.8497
59.8155
59.8123
59.8316
59.8729
59.9191
59.8849
59.8319
59.8398
59.9084
59.9925
60.374
60.240
60.299
60.719
60.1243
60.1515
60.888
60.317
60.591
60.1239
60.1871
60.2425
60.2421
60.2159
60.2111
60.2622
60.3175
60.2568
60.1734
60.1882
60.2621
60.3108
60.3106
60.2641
60.2284
60.2186
60.2391
60.2632
60.2129
60.1285
60.1034
60.1375
60.1746
60.1784
60.1267
60.908
60.824
60.905
60.976
60.170
59.8939
59.8451
59.8804
59.9196
59.9456
59.9234
59.8888
59.8585
59.8590
59.8994
59.8886
59.7920
59.7531
59.8166
59.8875
59.9218
59.8907
59.8627
59.8661
59.8907
59.9369
59.9530
59.8970
59.8548
59.8831
59.9547
60.324
60.397
60.171
60.225
60.641
60.1220
60.1181
60.400
60.123
60.604
60.1184
60.1782
60.2092
60.2006
60.1830
60.1955
60.2473
60.2605
60.1758
60.1213
60.1679
60.2302
60.2539
60.2166
60.1632
60.1353
60.1360
60.1568
60.1665
60.924
60.77
60.11
60.408
60.711
60.484
59.9959
59.9653
59.9664
59.9762
59.9620
59.8474
59.7408
59.7235
59.7644
59.8039
59.8158
59.7862
59.7504
59.7146
59.7287
59.7729
59.7212
59.6209
59.6126
59.6889
59.7437
59.7528
59.7067
59.6871
59.7012
59.7351
59.7850
59.7825
59.7242
59.7073
59.7615
59.8363
59.9006
59.8886
59.8729
59.8931
59.9415
59.9898
59.9580
59.8766
59.8655
59.9240
59.9883
60.522
60.738
60.596
60.415
60.661
60.1300
60.1279
60.361
60.79
60.707
60.1362
60.1569
60.1215
60.825
60.729
60.817
60.1124
60.1128
60.260
59.9611
59.9683
60.160
60.465
60.97
59.9576
59.9394
59.9483
59.9598
59.9320
59.8141
59.7361
59.7414
59.7827
59.8235
59.8347
59.8073
59.7742
59.7621
59.7977
59.8296
59.7566
59.6783
59.6991
59.7792
59.8341
59.8284
59.7848
59.7717
59.7861
59.8255
59.8705
59.8419
59.7845
59.7866
59.8444
59.9258
59.9804
59.9710
59.9652
59.9997
60.594
60.1018
60.437
59.9756
59.9898
60.535
60.1204
60.1790
60.1856
60.1618
60.1564
60.1988
60.2548
60.2120
60.1270
60.1296
60.2015
60.2523
60.2509
60.1991
60.1684
60.1603
60.1698
60.2006
60.1665
60.752
60.420
60.710
60.1099
60.1239
60.801
60.409
60.303
60.416
60.535
59.9780
59.8443
59.7921
59.8268
59.8710
59.8988
59.8766
59.8409
59.8098
59.8106
59.8471
59.8425
59.7491
59.6963
59.7450
59.8201
59.8561
59.8220
59.7924
59.7993
59.8231
59.8622
59.8974
59.8545
59.8047
59.8238
59.8967
59.9796
59.9979
